
  ZVR, 2.05

  stimulus-start        ; stimulus-stop       ; stimulus-unit       ; nof-points; parameter-type; impedance-ohm
  9.00000000000E+03     ; 1.00000000000E+08   ; Hz                  ; 2001      ; S11           ; 50        

  conversion            ; time-domain         ; data-format         ; param-unit; smoothing     ; trace-math
  S                     ; none                ; RI                  ; none      ; none          ; none

  sweep-mode-type       ; notlinear-meas-mode 
  FUNDAMENTAL           ; none                


  freq              ;  reS11        ; imS11         
   9.00000000000E+03; -0.965747     ;-0.00371569   
   9.04201843582E+03; -0.9662       ;-0.00302127   
   9.08423304375E+03; -0.965853     ;-0.00225699   
   9.12664473965E+03; -0.965578     ;-0.00175297   
   9.16925444368E+03; -0.967528     ;-0.00228462   
   9.21206308028E+03; -0.966377     ;-0.00288808   
   9.25507157820E+03; -0.965347     ;-0.00339451   
   9.29828087055E+03; -0.965712     ;-0.00368759   
   9.34169189477E+03; -0.96587      ;-0.00335148   
   9.38530559270E+03; -0.965947     ;-0.00338501   
   9.42912291056E+03; -0.965792     ;-0.00333747   
   9.47314479899E+03; -0.965569     ;-0.00375631   
   9.51737221307E+03; -0.965886     ;-0.00406975   
   9.56180611235E+03; -0.965849     ;-0.00358254   
   9.60644746085E+03; -0.966336     ;-0.00428283   
   9.65129722708E+03; -0.96588      ;-0.00425732   
   9.69635638410E+03; -0.965819     ;-0.00424451   
   9.74162590948E+03; -0.96584      ;-0.00424692   
   9.78710678538E+03; -0.966034     ;-0.00451678   
   9.83279999853E+03; -0.966611     ;-0.00427803   
   9.87870654027E+03; -0.966345     ;-0.00384626   
   9.92482740658E+03; -0.966151     ;-0.00442702   
   9.97116359807E+03; -0.966221     ;-0.00420719   
   1.00177161200E+04; -0.966535     ;-0.00446892   
   1.00644859825E+04; -0.96628      ;-0.00454402   
   1.01114742001E+04; -0.966394     ;-0.00434804   
   1.01586817922E+04; -0.96634      ;-0.00421724   
   1.02061097832E+04; -0.96637      ;-0.00458157   
   1.02537592020E+04; -0.966536     ;-0.00453874   
   1.03016310823E+04; -0.966574     ;-0.00468594   
   1.03497264628E+04; -0.966758     ;-0.00477538   
   1.03980463870E+04; -0.966669     ;-0.00480753   
   1.04465919031E+04; -0.966727     ;-0.00476533   
   1.04953640643E+04; -0.967203     ;-0.00468484   
   1.05443639289E+04; -0.966943     ;-0.004757     
   1.05935925599E+04; -0.967099     ;-0.00479299   
   1.06430510254E+04; -0.966627     ;-0.00379527   
   1.06927403983E+04; -0.967139     ;-0.00387138   
   1.07426617568E+04; -0.967476     ;-0.00463378   
   1.07928161838E+04; -0.967542     ;-0.00513037   
   1.08432047676E+04; -0.96741      ;-0.00500463   
   1.08938286014E+04; -0.96693      ;-0.00502707   
   1.09446887834E+04; -0.967535     ;-0.00525254   
   1.09957864171E+04; -0.967035     ;-0.00516678   
   1.10471226110E+04; -0.967489     ;-0.00514536   
   1.10986984791E+04; -0.967497     ;-0.00525987   
   1.11505151402E+04; -0.967556     ;-0.0052707    
   1.12025737185E+04; -0.96749      ;-0.00515831   
   1.12548753435E+04; -0.967686     ;-0.00555052   
   1.13074211498E+04; -0.967764     ;-0.00537682   
   1.13602122776E+04; -0.967793     ;-0.00545704   
   1.14132498721E+04; -0.967724     ;-0.00547817   
   1.14665350840E+04; -0.967837     ;-0.00536385   
   1.15200690694E+04; -0.967997     ;-0.00549144   
   1.15738529897E+04; -0.967981     ;-0.00556885   
   1.16278880118E+04; -0.96811      ;-0.00571449   
   1.16821753081E+04; -0.968039     ;-0.00561881   
   1.17367160562E+04; -0.968254     ;-0.00556229   
   1.17915114396E+04; -0.968482     ;-0.0056518    
   1.18465626470E+04; -0.968555     ;-0.00559641   
   1.19018708728E+04; -0.968405     ;-0.0055394    
   1.19574373170E+04; -0.968396     ;-0.00591812   
   1.20132631851E+04; -0.968553     ;-0.00559707   
   1.20693496882E+04; -0.968662     ;-0.00595896   
   1.21256980432E+04; -0.968554     ;-0.00598034   
   1.21823094727E+04; -0.968557     ;-0.00599213   
   1.22391852047E+04; -0.968781     ;-0.00592716   
   1.22963264734E+04; -0.968814     ;-0.00579827   
   1.23537345184E+04; -0.9689       ;-0.00596842   
   1.24114105852E+04; -0.968886     ;-0.00588417   
   1.24693559251E+04; -0.96905      ;-0.00585973   
   1.25275717953E+04; -0.969074     ;-0.00586526   
   1.25860594587E+04; -0.969098     ;-0.00597024   
   1.26448201845E+04; -0.969135     ;-0.00598791   
   1.27038552473E+04; -0.969281     ;-0.00598416   
   1.27631659280E+04; -0.969337     ;-0.00604507   
   1.28227535134E+04; -0.969372     ;-0.00601265   
   1.28826192962E+04; -0.969526     ;-0.00601043   
   1.29427645754E+04; -0.969483     ;-0.00599329   
   1.30031906557E+04; -0.969644     ;-0.00617884   
   1.30638988481E+04; -0.969576     ;-0.00604612   
   1.31248904698E+04; -0.969842     ;-0.00611471   
   1.31861668440E+04; -0.96991      ;-0.00617184   
   1.32477293002E+04; -0.969936     ;-0.00625928   
   1.33095791739E+04; -0.969927     ;-0.00609346   
   1.33717178070E+04; -0.969921     ;-0.00636339   
   1.34341465477E+04; -0.970632     ;-0.00651628   
   1.34968667505E+04; -0.970754     ;-0.0066154    
   1.35598797759E+04; -0.970874     ;-0.00671561   
   1.36231869913E+04; -0.970742     ;-0.00642924   
   1.36867897700E+04; -0.969957     ;-0.00648777   
   1.37506894919E+04; -0.969165     ;-0.00610721   
   1.38148875435E+04; -0.971081     ;-0.00639537   
   1.38793853174E+04; -0.971248     ;-0.00649129   
   1.39441842131E+04; -0.971093     ;-0.00658287   
   1.40092856364E+04; -0.971267     ;-0.00681607   
   1.40746909997E+04; -0.971343     ;-0.00673944   
   1.41404017219E+04; -0.971393     ;-0.00664726   
   1.42064192289E+04; -0.971393     ;-0.00669712   
   1.42727449527E+04; -0.971505     ;-0.00673899   
   1.43393803325E+04; -0.971519     ;-0.00671341   
   1.44063268138E+04; -0.971721     ;-0.00662278   
   1.44735858492E+04; -0.971611     ;-0.00680593   
   1.45411588979E+04; -0.971646     ;-0.00665285   
   1.46090474259E+04; -0.971838     ;-0.00664757   
   1.46772529061E+04; -0.971848     ;-0.00674248   
   1.47457768182E+04; -0.971929     ;-0.00645141   
   1.48146206490E+04; -0.972033     ;-0.00663812   
   1.48837858920E+04; -0.972299     ;-0.0066688    
   1.49532740478E+04; -0.972293     ;-0.00674056   
   1.50230866240E+04; -0.972468     ;-0.00680349   
   1.50932251352E+04; -0.972396     ;-0.00678483   
   1.51636911032E+04; -0.972571     ;-0.00672153   
   1.52344860567E+04; -0.972479     ;-0.00626984   
   1.53056115317E+04; -0.972417     ;-0.00641232   
   1.53770690712E+04; -0.972513     ;-0.00675116   
   1.54488602256E+04; -0.972565     ;-0.0065884    
   1.55209865525E+04; -0.972743     ;-0.00683516   
   1.55934496167E+04; -0.972886     ;-0.00669088   
   1.56662509902E+04; -0.973121     ;-0.00650228   
   1.57393922526E+04; -0.973096     ;-0.00632486   
   1.58128749908E+04; -0.973074     ;-0.00622769   
   1.58867007989E+04; -0.972724     ;-0.00648842   
   1.59608712786E+04; -0.97258      ;-0.00619934   
   1.60353880393E+04; -0.972616     ;-0.00618182   
   1.61102526974E+04; -0.97273      ;-0.00615252   
   1.61854668773E+04; -0.972821     ;-0.00618301   
   1.62610322108E+04; -0.973046     ;-0.00601395   
   1.63369503372E+04; -0.97315      ;-0.00591372   
   1.64132229038E+04; -0.972987     ;-0.00588043   
   1.64898515653E+04; -0.97332      ;-0.00598706   
   1.65668379841E+04; -0.973272     ;-0.00599002   
   1.66441838307E+04; -0.972937     ;-0.00589732   
   1.67218907829E+04; -0.97225      ;-0.00552173   
   1.67999605267E+04; -0.971445     ;-0.00457308   
   1.68783947560E+04; -0.972675     ;-0.00552065   
   1.69571951723E+04; -0.973553     ;-0.00600965   
   1.70363634853E+04; -0.973427     ;-0.00594968   
   1.71159014126E+04; -0.973613     ;-0.00575975   
   1.71958106798E+04; -0.973748     ;-0.0058504    
   1.72760930207E+04; -0.973709     ;-0.00584459   
   1.73567501769E+04; -0.973795     ;-0.0060728    
   1.74377838984E+04; -0.973985     ;-0.00603054   
   1.75191959432E+04; -0.973901     ;-0.0059115    
   1.76009880777E+04; -0.973968     ;-0.00589423   
   1.76831620763E+04; -0.973858     ;-0.0056888    
   1.77657197220E+04; -0.973809     ;-0.00589731   
   1.78486628058E+04; -0.974099     ;-0.00583176   
   1.79319931272E+04; -0.974251     ;-0.0057357    
   1.80157124941E+04; -0.974294     ;-0.00561921   
   1.80998227229E+04; -0.974262     ;-0.00550261   
   1.81843256384E+04; -0.974246     ;-0.00567722   
   1.82692230739E+04; -0.973694     ;-0.00602665   
   1.83545168714E+04; -0.973841     ;-0.00573055   
   1.84402088813E+04; -0.974278     ;-0.00550301   
   1.85263009628E+04; -0.974977     ;-0.00544758   
   1.86127949837E+04; -0.974747     ;-0.00542528   
   1.86996928205E+04; -0.974767     ;-0.0054666    
   1.87869963586E+04; -0.97481      ;-0.00531431   
   1.88747074920E+04; -0.975003     ;-0.00523362   
   1.89628281237E+04; -0.975028     ;-0.00528301   
   1.90513601656E+04; -0.975006     ;-0.00524419   
   1.91403055383E+04; -0.974976     ;-0.00514892   
   1.92296661716E+04; -0.975173     ;-0.00519133   
   1.93194440042E+04; -0.975164     ;-0.00507971   
   1.94096409840E+04; -0.975187     ;-0.00519448   
   1.95002590678E+04; -0.975263     ;-0.00503176   
   1.95913002216E+04; -0.97529      ;-0.00511014   
   1.96827664206E+04; -0.975556     ;-0.00503587   
   1.97746596492E+04; -0.975612     ;-0.0049135    
   1.98669819012E+04; -0.975667     ;-0.0048673    
   1.99597351794E+04; -0.97549      ;-0.00494095   
   2.00529214962E+04; -0.985102     ;-0.00260144   
   2.01465428734E+04; -0.985615     ;-0.0029567    
   2.02406013422E+04; -0.985682     ;-0.00292934   
   2.03350989431E+04; -0.985535     ;-0.00275734   
   2.04300377265E+04; -0.985696     ;-0.00288993   
   2.05254197519E+04; -0.985751     ;-0.00260697   
   2.06212470888E+04; -0.985826     ;-0.00268705   
   2.07175218163E+04; -0.985879     ;-0.00245751   
   2.08142460231E+04; -0.986001     ;-0.00243971   
   2.09114218076E+04; -0.986004     ;-0.00250834   
   2.10090512782E+04; -0.986129     ;-0.00221177   
   2.11071365529E+04; -0.986148     ;-0.00231275   
   2.12056797599E+04; -0.986282     ;-0.002171     
   2.13046830370E+04; -0.986367     ;-0.00197347   
   2.14041485322E+04; -0.986422     ;-0.00177908   
   2.15040784035E+04; -0.986174     ;-0.00185442   
   2.16044748189E+04; -0.986385     ;-0.00194574   
   2.17053399565E+04; -0.986364     ;-0.00185877   
   2.18066760047E+04; -0.986149     ;-0.00194959   
   2.19084851621E+04; -0.986273     ;-0.00177698   
   2.20107696374E+04; -0.986423     ;-0.00153847   
   2.21135316497E+04; -0.98641      ;-0.00158183   
   2.22167734287E+04; -0.986598     ;-0.00140914   
   2.23204972141E+04; -0.986592     ;-0.00155315   
   2.24247052562E+04; -0.986675     ;-0.00140803   
   2.25293998161E+04; -0.986781     ;-0.00119475   
   2.26345831650E+04; -0.986705     ;-0.00126419   
   2.27402575850E+04; -0.986783     ;-0.0011869    
   2.28464253688E+04; -0.986978     ;-0.00111054   
   2.29530888197E+04; -0.986893     ;-0.00095237   
   2.30602502519E+04; -0.986977     ;-0.000921838  
   2.31679119902E+04; -0.987173     ;-0.000916101  
   2.32760763706E+04; -0.98725      ;-0.000790875  
   2.33847457396E+04; -0.987029     ;-0.000582363  
   2.34939224549E+04; -0.987246     ;-0.00071948   
   2.36036088852E+04; -0.987142     ;-0.000688173  
   2.37138074102E+04; -0.987254     ;-0.000295363  
   2.38245204208E+04; -0.98722      ;-0.000154685  
   2.39357503188E+04; -0.987426     ;-0.000506319  
   2.40474995175E+04; -0.987663     ;-0.000402022  
   2.41597704414E+04; -0.987209     ; 0.00018714   
   2.42725655263E+04; -0.987294     ; 0.000115987  
   2.43858872193E+04; -0.987179     ;-0.000589419  
   2.44997379790E+04; -0.987209     ;-0.000529986  
   2.46141202754E+04; -0.98704      ;-0.000134636  
   2.47290365902E+04; -0.987047     ; 0.00037517   
   2.48444894165E+04; -0.987798     ; 0.000381447  
   2.49604812592E+04; -0.98754      ; 0.000356857  
   2.50770146347E+04; -0.987307     ; 0.000376366  
   2.51940920714E+04; -0.987658     ; 0.000499839  
   2.53117161092E+04; -0.987619     ; 0.000445468  
   2.54298893002E+04; -0.988618     ; 0.000293162  
   2.55486142082E+04; -0.987732     ; 0.000735523  
   2.56678934089E+04; -0.987817     ; 0.000677478  
   2.57877294902E+04; -0.987595     ; 0.000834858  
   2.59081250521E+04; -0.987827     ; 0.00107479   
   2.60290827065E+04; -0.987842     ; 0.000931397  
   2.61506050777E+04; -0.988574     ; 0.000714947  
   2.62726948023E+04; -0.987787     ; 0.00118921   
   2.63953545290E+04; -0.987823     ; 0.00135201   
   2.65185869190E+04; -0.988068     ; 0.00130003   
   2.66423946460E+04; -0.987973     ; 0.00140056   
   2.67667803959E+04; -0.987935     ; 0.00136156   
   2.68917468675E+04; -0.988876     ; 0.00116115   
   2.70172967719E+04; -0.988086     ; 0.00168147   
   2.71434328331E+04; -0.988223     ; 0.00167617   
   2.72701577876E+04; -0.988217     ; 0.00183918   
   2.73974743848E+04; -0.988457     ; 0.00187487   
   2.75253853869E+04; -0.988353     ; 0.00171416   
   2.76538935691E+04; -0.988261     ; 0.00188675   
   2.77830017193E+04; -0.988167     ; 0.0020453    
   2.79127126387E+04; -0.988209     ; 0.00211592   
   2.80430291415E+04; -0.988227     ; 0.00223207   
   2.81739540548E+04; -0.988317     ; 0.00212945   
   2.83054902193E+04; -0.989184     ; 0.00216091   
   2.84376404886E+04; -0.989098     ; 0.00223704   
   2.85704077300E+04; -0.988402     ; 0.00277168   
   2.87037948237E+04; -0.989153     ; 0.0023232    
   2.88378046638E+04; -0.989347     ; 0.00231296   
   2.89724401576E+04; -0.989286     ; 0.00248474   
   2.91077042262E+04; -0.989165     ; 0.00246037   
   2.92435998042E+04; -0.989148     ; 0.00264117   
   2.93801298399E+04; -0.989292     ; 0.00256829   
   2.95172972955E+04; -0.988629     ; 0.00295368   
   2.96551051468E+04; -0.988553     ; 0.00315183   
   2.97935563837E+04; -0.988551     ; 0.00326581   
   2.99326540101E+04; -0.988617     ; 0.00332524   
   3.00724010436E+04; -0.989336     ; 0.00306362   
   3.02128005161E+04; -0.989397     ; 0.00305212   
   3.03538554739E+04; -0.989422     ; 0.00346645   
   3.04955689770E+04; -0.989385     ; 0.00335689   
   3.06379441001E+04; -0.989231     ; 0.00355755   
   3.07809839321E+04; -0.989525     ; 0.00346294   
   3.09246915763E+04; -0.989416     ; 0.00378434   
   3.10690701505E+04; -0.988641     ; 0.00396565   
   3.12141227872E+04; -0.98955      ; 0.0036125    
   3.13598526333E+04; -0.989631     ; 0.00371807   
   3.15062628506E+04; -0.989674     ; 0.00380547   
   3.16533566154E+04; -0.988846     ; 0.00417528   
   3.18011371191E+04; -0.98882      ; 0.00425608   
   3.19496075679E+04; -0.988868     ; 0.00432576   
   3.20987711829E+04; -0.989556     ; 0.00416005   
   3.22486312004E+04; -0.98953      ; 0.00426315   
   3.23991908715E+04; -0.989664     ; 0.00424267   
   3.25504534629E+04; -0.988924     ; 0.00473091   
   3.27024222562E+04; -0.988838     ; 0.00484414   
   3.28551005485E+04; -0.989726     ; 0.00463644   
   3.30084916523E+04; -0.989807     ; 0.00461221   
   3.31625988954E+04; -0.989711     ; 0.00481125   
   3.33174256213E+04; -0.989729     ; 0.00476892   
   3.34729751891E+04; -0.989764     ; 0.00496929   
   3.36292509735E+04; -0.988928     ; 0.00519272   
   3.37862563651E+04; -0.989063     ; 0.00549365   
   3.39439947700E+04; -0.989094     ; 0.00506698   
   3.41024696107E+04; -0.989655     ; 0.00523379   
   3.42616843252E+04; -0.989847     ; 0.00528233   
   3.44216423679E+04; -0.989798     ; 0.00539348   
   3.45823472091E+04; -0.989968     ; 0.00551065   
   3.47438023354E+04; -0.989683     ; 0.00557285   
   3.49060112497E+04; -0.989774     ; 0.00562849   
   3.50689774712E+04; -0.98896      ; 0.00582184   
   3.52327045355E+04; -0.989144     ; 0.00596587   
   3.53971959949E+04; -0.989023     ; 0.00606098   
   3.55624554180E+04; -0.989067     ; 0.00615544   
   3.57284863903E+04; -0.989177     ; 0.00605684   
   3.58952925139E+04; -0.98956      ; 0.00618752   
   3.60628774078E+04; -0.989881     ; 0.00612194   
   3.62312447078E+04; -0.989986     ; 0.00638871   
   3.64003980667E+04; -0.989292     ; 0.00648372   
   3.65703411545E+04; -0.989922     ; 0.00654652   
   3.67410776581E+04; -0.990181     ; 0.00657777   
   3.69126112819E+04; -0.990177     ; 0.00649476   
   3.70849457472E+04; -0.990022     ; 0.00650268   
   3.72580847931E+04; -0.989866     ; 0.00666094   
   3.74320321758E+04; -0.989897     ; 0.00684418   
   3.76067916693E+04; -0.99008      ; 0.00678102   
   3.77823670651E+04; -0.990003     ; 0.00707087   
   3.79587621724E+04; -0.989991     ; 0.00700601   
   3.81359808182E+04; -0.990098     ; 0.00705958   
   3.83140268474E+04; -0.989971     ; 0.00703816   
   3.84929041228E+04; -0.990013     ; 0.00727287   
   3.86726165251E+04; -0.989823     ; 0.00745257   
   3.88531679535E+04; -0.989666     ; 0.00761346   
   3.90345623251E+04; -0.990116     ; 0.00744512   
   3.92168035753E+04; -0.990118     ; 0.0076534    
   3.93998956580E+04; -0.990214     ; 0.00770023   
   3.95838425455E+04; -0.989949     ; 0.00784837   
   3.97686482285E+04; -0.989989     ; 0.00790753   
   3.99543167167E+04; -0.989952     ; 0.00800253   
   4.01408520381E+04; -0.99017      ; 0.00788532   
   4.03282582398E+04; -0.99008      ; 0.00805331   
   4.05165393876E+04; -0.990083     ; 0.0079207    
   4.07056995665E+04; -0.990066     ; 0.0082666    
   4.08957428804E+04; -0.990241     ; 0.00842617   
   4.10866734523E+04; -0.990019     ; 0.00843258   
   4.12784954247E+04; -0.990125     ; 0.00864105   
   4.14712129592E+04; -0.989494     ; 0.00844087   
   4.16648302370E+04; -0.989579     ; 0.00877566   
   4.18593514587E+04; -0.989308     ; 0.0087443    
   4.20547808446E+04; -0.989337     ; 0.0088944    
   4.22511226346E+04; -0.989309     ; 0.0088943    
   4.24483810885E+04; -0.989327     ; 0.0091658    
   4.26465604859E+04; -0.98941      ; 0.00919481   
   4.28456651264E+04; -0.989375     ; 0.00925678   
   4.30456993298E+04; -0.98928      ; 0.00935985   
   4.32466674358E+04; -0.989159     ; 0.0095316    
   4.34485738047E+04; -0.989363     ; 0.00936938   
   4.36514228170E+04; -0.989362     ; 0.00967996   
   4.38552188734E+04; -0.98952      ; 0.00963996   
   4.40599663956E+04; -0.98935      ; 0.00978892   
   4.42656698256E+04; -0.98944      ; 0.00974697   
   4.44723336264E+04; -0.989974     ; 0.00964714   
   4.46799622815E+04; -0.989984     ; 0.009893     
   4.48885602957E+04; -0.989908     ; 0.00996414   
   4.50981321946E+04; -0.989657     ; 0.0101004    
   4.53086825250E+04; -0.989302     ; 0.00992412   
   4.55202158548E+04; -0.989492     ; 0.0102014    
   4.57327367735E+04; -0.989339     ; 0.0103231    
   4.59462498919E+04; -0.989405     ; 0.0104071    
   4.61607598421E+04; -0.989227     ; 0.0105795    
   4.63762712782E+04; -0.989227     ; 0.0107013    
   4.65927888758E+04; -0.989525     ; 0.0106128    
   4.68103173324E+04; -0.989429     ; 0.0108871    
   4.70288613674E+04; -0.989505     ; 0.0109488    
   4.72484257222E+04; -0.989219     ; 0.0108295    
   4.74690151604E+04; -0.98946      ; 0.0111777    
   4.76906344678E+04; -0.989248     ; 0.0112593    
   4.79132884527E+04; -0.989588     ; 0.0112501    
   4.81369819455E+04; -0.989492     ; 0.0113687    
   4.83617197996E+04; -0.989217     ; 0.0109546    
   4.85875068907E+04; -0.989356     ; 0.0107187    
   4.88143481173E+04; -0.989616     ; 0.0115762    
   4.90422484011E+04; -0.989058     ; 0.011524     
   4.92712126863E+04; -0.989752     ; 0.011703     
   4.95012459405E+04; -0.989363     ; 0.0117725    
   4.97323531545E+04; -0.989493     ; 0.0117987    
   4.99645393422E+04; -0.989399     ; 0.0119725    
   5.01978095410E+04; -0.98976      ; 0.0122512    
   5.04321688120E+04; -0.989278     ; 0.0118728    
   5.06676222396E+04; -0.9894       ; 0.0114283    
   5.09041749322E+04; -0.989454     ; 0.011882     
   5.11418320219E+04; -0.990162     ; 0.0125415    
   5.13805986649E+04; -0.989582     ; 0.0133844    
   5.16204800412E+04; -0.989646     ; 0.0118662    
   5.18614813554E+04; -0.989911     ; 0.0126114    
   5.21036078361E+04; -0.989365     ; 0.012803     
   5.23468647363E+04; -0.989828     ; 0.0121022    
   5.25912573337E+04; -0.98934      ; 0.0129124    
   5.28367909305E+04; -0.989733     ; 0.0125117    
   5.30834708537E+04; -0.988967     ; 0.0136823    
   5.33313024551E+04; -0.989499     ; 0.0129777    
   5.35802911117E+04; -0.989953     ; 0.013493     
   5.38304422254E+04; -0.988753     ; 0.0123914    
   5.40817612234E+04; -0.989232     ; 0.0132571    
   5.43342535582E+04; -0.988994     ; 0.0141825    
   5.45879247078E+04; -0.98973      ; 0.0130088    
   5.48427801757E+04; -0.989851     ; 0.0135283    
   5.50988254911E+04; -0.989734     ; 0.0131463    
   5.53560662092E+04; -0.989808     ; 0.0136427    
   5.56145079109E+04; -0.989925     ; 0.0138114    
   5.58741562033E+04; -0.989198     ; 0.0144387    
   5.61350167196E+04; -0.989429     ; 0.0133568    
   5.63970951193E+04; -0.989358     ; 0.014142     
   5.66603970884E+04; -0.989668     ; 0.0144979    
   5.69249283393E+04; -0.989599     ; 0.013915     
   5.71906946113E+04; -0.989322     ; 0.0143142    
   5.74577016703E+04; -0.989738     ; 0.0142811    
   5.77259553092E+04; -0.989146     ; 0.0144374    
   5.79954613480E+04; -0.989161     ; 0.0143091    
   5.82662256336E+04; -0.988644     ; 0.0144598    
   5.85382540405E+04; -0.989388     ; 0.0152246    
   5.88115524706E+04; -0.989868     ; 0.0149188    
   5.90861268531E+04; -0.989219     ; 0.0152358    
   5.93619831452E+04; -0.989106     ; 0.0150826    
   5.96391273318E+04; -0.989168     ; 0.0141944    
   5.99175654256E+04; -0.989416     ; 0.0157994    
   6.01973034675E+04; -0.989451     ; 0.0154433    
   6.04783475267E+04; -0.989585     ; 0.01561      
   6.07607037005E+04; -0.989392     ; 0.0146428    
   6.10443781148E+04; -0.989537     ; 0.0149628    
   6.13293769242E+04; -0.989362     ; 0.0161519    
   6.16157063117E+04; -0.989243     ; 0.0151475    
   6.19033724897E+04; -0.9889       ; 0.0162846    
   6.21923816990E+04; -0.989365     ; 0.0154052    
   6.24827402100E+04; -0.989369     ; 0.0163115    
   6.27744543222E+04; -0.989264     ; 0.0164109    
   6.30675303644E+04; -0.988993     ; 0.0165746    
   6.33619746952E+04; -0.989384     ; 0.016989     
   6.36577937027E+04; -0.989538     ; 0.0169111    
   6.39549938048E+04; -0.989212     ; 0.0156823    
   6.42535814495E+04; -0.988637     ; 0.0165881    
   6.45535631149E+04; -0.989559     ; 0.0161417    
   6.48549453092E+04; -0.989315     ; 0.0167881    
   6.51577345711E+04; -0.988935     ; 0.0166762    
   6.54619374698E+04; -0.989224     ; 0.0166411    
   6.57675606052E+04; -0.989273     ; 0.0173975    
   6.60746106079E+04; -0.988971     ; 0.0166427    
   6.63830941396E+04; -0.989334     ; 0.0172448    
   6.66930178930E+04; -0.989179     ; 0.0168976    
   6.70043885922E+04; -0.989371     ; 0.0180102    
   6.73172129924E+04; -0.989196     ; 0.0177319    
   6.76314978806E+04; -0.989187     ; 0.0171513    
   6.79472500754E+04; -0.989325     ; 0.0180861    
   6.82644764272E+04; -0.989042     ; 0.0173556    
   6.85831838185E+04; -0.989286     ; 0.0183024    
   6.89033791638E+04; -0.988955     ; 0.0180256    
   6.92250694099E+04; -0.988922     ; 0.0181313    
   6.95482615362E+04; -0.989144     ; 0.0178977    
   6.98729625544E+04; -0.988908     ; 0.018294     
   7.01991795091E+04; -0.989507     ; 0.0191779    
   7.05269194779E+04; -0.989682     ; 0.018578     
   7.08561895712E+04; -0.989043     ; 0.0189479    
   7.11869969328E+04; -0.9891       ; 0.019113     
   7.15193487397E+04; -0.98905      ; 0.0184901    
   7.18532522024E+04; -0.98967      ; 0.0198266    
   7.21887145654E+04; -0.990019     ; 0.0191905    
   7.25257431065E+04; -0.989855     ; 0.0186189    
   7.28643451378E+04; -0.989518     ; 0.0191222    
   7.32045280056E+04; -0.989318     ; 0.0191669    
   7.35462990902E+04; -0.988583     ; 0.0203222    
   7.38896658067E+04; -0.988609     ; 0.0200024    
   7.42346356045E+04; -0.989098     ; 0.0200201    
   7.45812159681E+04; -0.988802     ; 0.0192991    
   7.49294144166E+04; -0.988646     ; 0.0193658    
   7.52792385045E+04; -0.988692     ; 0.0206424    
   7.56306958213E+04; -0.988836     ; 0.0197332    
   7.59837939923E+04; -0.989454     ; 0.020928     
   7.63385406780E+04; -0.98932      ; 0.0195664    
   7.66949435749E+04; -0.989317     ; 0.0201312    
   7.70530104154E+04; -0.988845     ; 0.0204866    
   7.74127489679E+04; -0.98897      ; 0.0203051    
   7.77741670373E+04; -0.988617     ; 0.0209276    
   7.81372724647E+04; -0.98902      ; 0.0202508    
   7.85020731278E+04; -0.989435     ; 0.0211609    
   7.88685769413E+04; -0.988735     ; 0.0209639    
   7.92367918567E+04; -0.989087     ; 0.0207124    
   7.96067258626E+04; -0.988875     ; 0.0214932    
   7.99783869850E+04; -0.989258     ; 0.0215127    
   8.03517832873E+04; -0.988766     ; 0.0215756    
   8.07269228706E+04; -0.988652     ; 0.0213309    
   8.11038138737E+04; -0.98903      ; 0.0220932    
   8.14824644734E+04; -0.988961     ; 0.0218851    
   8.18628828850E+04; -0.988439     ; 0.0217198    
   8.22450773618E+04; -0.989243     ; 0.0225177    
   8.26290561956E+04; -0.989027     ; 0.0217988    
   8.30148277173E+04; -0.988992     ; 0.0223454    
   8.34024002962E+04; -0.988456     ; 0.0218376    
   8.37917823411E+04; -0.988742     ; 0.0229143    
   8.41829822999E+04; -0.988996     ; 0.0228419    
   8.45760086598E+04; -0.988912     ; 0.0220681    
   8.49708699478E+04; -0.988779     ; 0.0229517    
   8.53675747306E+04; -0.988827     ; 0.0224621    
   8.57661316150E+04; -0.988783     ; 0.0230384    
   8.61665492480E+04; -0.988788     ; 0.0226296    
   8.65688363169E+04; -0.989192     ; 0.0235437    
   8.69730015494E+04; -0.988688     ; 0.0233215    
   8.73790537143E+04; -0.988773     ; 0.0234172    
   8.77870016210E+04; -0.989002     ; 0.0240624    
   8.81968541203E+04; -0.989153     ; 0.0235055    
   8.86086201041E+04; -0.989157     ; 0.024191     
   8.90223085060E+04; -0.988725     ; 0.0232382    
   8.94379283012E+04; -0.988733     ; 0.0244262    
   8.98554885068E+04; -0.988976     ; 0.0239109    
   9.02749981820E+04; -0.988577     ; 0.0238604    
   9.06964664284E+04; -0.98944      ; 0.0243621    
   9.11199023900E+04; -0.988712     ; 0.0239649    
   9.15453152534E+04; -0.988802     ; 0.0246832    
   9.19727142482E+04; -0.98858      ; 0.0241511    
   9.24021086472E+04; -0.989069     ; 0.0252223    
   9.28335077663E+04; -0.988804     ; 0.0249982    
   9.32669209650E+04; -0.988773     ; 0.0244555    
   9.37023576464E+04; -0.988616     ; 0.025045     
   9.41398272577E+04; -0.98847      ; 0.0249262    
   9.45793392899E+04; -0.98901      ; 0.0255692    
   9.50209032786E+04; -0.988376     ; 0.0251389    
   9.54645288037E+04; -0.988425     ; 0.0257296    
   9.59102254900E+04; -0.989006     ; 0.0267196    
   9.63580030071E+04; -0.988236     ; 0.0260715    
   9.68078710699E+04; -0.988798     ; 0.0261048    
   9.72598394386E+04; -0.988439     ; 0.0258913    
   9.77139179187E+04; -0.988461     ; 0.0265079    
   9.81701163619E+04; -0.988361     ; 0.0265165    
   9.86284446657E+04; -0.988338     ; 0.0264838    
   9.90889127738E+04; -0.988829     ; 0.02704      
   9.95515306762E+04; -0.988168     ; 0.0265338    
   1.00016308410E+05; -0.989025     ; 0.026787     
   1.00483256058E+05; -0.988287     ; 0.0268913    
   1.00952383752E+05; -0.98928      ; 0.0275729    
   1.01423701670E+05; -0.98839      ; 0.0274418    
   1.01897220036E+05; -0.988952     ; 0.0275557    
   1.02372949125E+05; -0.988967     ; 0.0281927    
   1.02850899258E+05; -0.988373     ; 0.0273742    
   1.03331080803E+05; -0.988495     ; 0.0278908    
   1.03813504180E+05; -0.988422     ; 0.0278876    
   1.04298179853E+05; -0.98873      ; 0.0283222    
   1.04785118340E+05; -0.987879     ; 0.0281584    
   1.05274330203E+05; -0.988371     ; 0.0283103    
   1.05765826057E+05; -0.988959     ; 0.0286219    
   1.06259616565E+05; -0.988185     ; 0.0283088    
   1.06755712441E+05; -0.98846      ; 0.02879      
   1.07254124447E+05; -0.988146     ; 0.0289674    
   1.07754863396E+05; -0.988755     ; 0.0289697    
   1.08257940153E+05; -0.988244     ; 0.0294124    
   1.08763365632E+05; -0.988412     ; 0.028999     
   1.09271150798E+05; -0.988556     ; 0.0297623    
   1.09781306669E+05; -0.988101     ; 0.0294958    
   1.10293844312E+05; -0.98889      ; 0.0296952    
   1.10808774848E+05; -0.988395     ; 0.0294516    
   1.11326109447E+05; -0.988101     ; 0.0302528    
   1.11845859334E+05; -0.988344     ; 0.0301004    
   1.12368035786E+05; -0.988105     ; 0.0302133    
   1.12892650130E+05; -0.988785     ; 0.0307241    
   1.13419713749E+05; -0.988636     ; 0.0300596    
   1.13949238079E+05; -0.988341     ; 0.0302046    
   1.14481234606E+05; -0.988273     ; 0.030567     
   1.15015714874E+05; -0.988527     ; 0.030967     
   1.15552690478E+05; -0.988334     ; 0.0313278    
   1.16092173067E+05; -0.988383     ; 0.0309314    
   1.16634174348E+05; -0.988417     ; 0.0314621    
   1.17178706078E+05; -0.988149     ; 0.0313082    
   1.17725780071E+05; -0.988329     ; 0.0316484    
   1.18275408197E+05; -0.988003     ; 0.0316267    
   1.18827602380E+05; -0.988363     ; 0.0321322    
   1.19382374601E+05; -0.988389     ; 0.0326942    
   1.19939736895E+05; -0.98792      ; 0.0321984    
   1.20499701355E+05; -0.988345     ; 0.032286     
   1.21062280129E+05; -0.987851     ; 0.032116     
   1.21627485423E+05; -0.988506     ; 0.0327406    
   1.22195329500E+05; -0.987701     ; 0.0332583    
   1.22765824679E+05; -0.987869     ; 0.032916     
   1.23338983337E+05; -0.988407     ; 0.0335882    
   1.23914817910E+05; -0.987437     ; 0.0330256    
   1.24493340890E+05; -0.988085     ; 0.0336595    
   1.25074564830E+05; -0.987985     ; 0.0336867    
   1.25658502338E+05; -0.988277     ; 0.0332861    
   1.26245166084E+05; -0.987726     ; 0.0340913    
   1.26834568796E+05; -0.98787      ; 0.0339969    
   1.27426723262E+05; -0.988428     ; 0.0342777    
   1.28021642328E+05; -0.987434     ; 0.034293     
   1.28619338901E+05; -0.987951     ; 0.0345122    
   1.29219825950E+05; -0.988015     ; 0.034602     
   1.29823116501E+05; -0.987658     ; 0.0346684    
   1.30429223644E+05; -0.987939     ; 0.0354715    
   1.31038160529E+05; -0.987519     ; 0.0350059    
   1.31649940367E+05; -0.988387     ; 0.0355021    
   1.32264576430E+05; -0.987869     ; 0.035468     
   1.32882082054E+05; -0.988245     ; 0.0352793    
   1.33502470636E+05; -0.987689     ; 0.0363398    
   1.34125755635E+05; -0.987826     ; 0.0356442    
   1.34751950575E+05; -0.988199     ; 0.0365167    
   1.35381069040E+05; -0.987595     ; 0.0364242    
   1.36013124680E+05; -0.987875     ; 0.0362385    
   1.36648131208E+05; -0.988141     ; 0.036281     
   1.37286102400E+05; -0.987786     ; 0.035829     
   1.37927052099E+05; -0.987252     ; 0.0376919    
   1.38570994208E+05; -0.98698      ; 0.0370314    
   1.39217942700E+05; -0.987662     ; 0.0378949    
   1.39867911610E+05; -0.98771      ; 0.0366341    
   1.40520915040E+05; -0.989049     ; 0.0370697    
   1.41176967156E+05; -0.986932     ; 0.0374146    
   1.41836082194E+05; -0.988467     ; 0.0370145    
   1.42498274451E+05; -0.98892      ; 0.038135     
   1.43163558295E+05; -0.986202     ; 0.0367289    
   1.43831948161E+05; -0.988648     ; 0.0381645    
   1.44503458548E+05; -0.988009     ; 0.037653     
   1.45178104025E+05; -0.986439     ; 0.0395741    
   1.45855899230E+05; -0.986755     ; 0.0378313    
   1.46536858868E+05; -0.987167     ; 0.0391204    
   1.47220997713E+05; -0.988914     ; 0.0378321    
   1.47908330606E+05; -0.98853      ; 0.0387126    
   1.48598872462E+05; -0.986524     ; 0.0388269    
   1.49292638260E+05; -0.98785      ; 0.0389863    
   1.49989643053E+05; -0.98784      ; 0.0387441    
   1.50689901963E+05; -0.986632     ; 0.0413449    
   1.51393430183E+05; -0.986022     ; 0.0404801    
   1.52100242975E+05; -0.987453     ; 0.0413527    
   1.52810355675E+05; -0.986821     ; 0.0404533    
   1.53523783688E+05; -0.987034     ; 0.0402594    
   1.54240542494E+05; -0.987513     ; 0.041687     
   1.54960647643E+05; -0.9873       ; 0.0413378    
   1.55684114757E+05; -0.987494     ; 0.0418961    
   1.56410959533E+05; -0.986533     ; 0.0410007    
   1.57141197740E+05; -0.986894     ; 0.0415575    
   1.57874845221E+05; -0.987114     ; 0.0422828    
   1.58611917894E+05; -0.987702     ; 0.0422201    
   1.59352431749E+05; -0.986857     ; 0.0422006    
   1.60096402852E+05; -0.986735     ; 0.0419961    
   1.60843847344E+05; -0.987026     ; 0.0428863    
   1.61594781441E+05; -0.986676     ; 0.0428672    
   1.62349221436E+05; -0.98703      ; 0.0433777    
   1.63107183696E+05; -0.986934     ; 0.0432265    
   1.63868684666E+05; -0.987718     ; 0.0429731    
   1.64633740867E+05; -0.986793     ; 0.0435193    
   1.65402368898E+05; -0.986763     ; 0.0437423    
   1.66174585433E+05; -0.987343     ; 0.0438592    
   1.66950407228E+05; -0.986285     ; 0.0443989    
   1.67729851114E+05; -0.987312     ; 0.044735     
   1.68512934001E+05; -0.987379     ; 0.0444143    
   1.69299672879E+05; -0.987134     ; 0.0442609    
   1.70090084817E+05; -0.986886     ; 0.044871     
   1.70884186963E+05; -0.986759     ; 0.04524      
   1.71681996545E+05; -0.987158     ; 0.0452569    
   1.72483530873E+05; -0.986734     ; 0.0462022    
   1.73288807337E+05; -0.987222     ; 0.0463277    
   1.74097843407E+05; -0.986887     ; 0.0462633    
   1.74910656636E+05; -0.987094     ; 0.0457003    
   1.75727264658E+05; -0.98684      ; 0.0460871    
   1.76547685191E+05; -0.986514     ; 0.0467629    
   1.77371936033E+05; -0.986665     ; 0.0468038    
   1.78200035067E+05; -0.98647      ; 0.0472123    
   1.79032000260E+05; -0.98647      ; 0.0472898    
   1.79867849662E+05; -0.987254     ; 0.0477445    
   1.80707601406E+05; -0.986822     ; 0.047165     
   1.81551273712E+05; -0.986524     ; 0.0477266    
   1.82398884883E+05; -0.986542     ; 0.0485562    
   1.83250453310E+05; -0.986895     ; 0.0479653    
   1.84105997466E+05; -0.986718     ; 0.0491904    
   1.84965535915E+05; -0.986438     ; 0.0485875    
   1.85829087304E+05; -0.986838     ; 0.0493121    
   1.86696670368E+05; -0.986419     ; 0.0479784    
   1.87568303931E+05; -0.985872     ; 0.0491223    
   1.88444006902E+05; -0.98718      ; 0.0498625    
   1.89323798281E+05; -0.986325     ; 0.0491334    
   1.90207697155E+05; -0.987223     ; 0.0505371    
   1.91095722701E+05; -0.986687     ; 0.0492728    
   1.91987894186E+05; -0.987503     ; 0.0508101    
   1.92884230965E+05; -0.986006     ; 0.0492572    
   1.93784752485E+05; -0.987099     ; 0.0509582    
   1.94689478283E+05; -0.986987     ; 0.0507048    
   1.95598427988E+05; -0.9869       ; 0.0510706    
   1.96511621321E+05; -0.986391     ; 0.0512208    
   1.97429078093E+05; -0.987004     ; 0.0519597    
   1.98350818209E+05; -0.986687     ; 0.0509401    
   1.99276861668E+05; -0.986577     ; 0.0522887    
   2.00207228559E+05; -0.986443     ; 0.05227      
   2.01141939068E+05; -0.986923     ; 0.053494     
   2.02081013475E+05; -0.98624      ; 0.0524317    
   2.03024472152E+05; -0.986768     ; 0.0537191    
   2.03972335569E+05; -0.986569     ; 0.052904     
   2.04924624290E+05; -0.985892     ; 0.0538419    
   2.05881358976E+05; -0.986393     ; 0.0545541    
   2.06842560384E+05; -0.9857       ; 0.0540167    
   2.07808249367E+05; -0.985908     ; 0.0545195    
   2.08778446877E+05; -0.986133     ; 0.05487      
   2.09753173963E+05; -0.986351     ; 0.0545059    
   2.10732451772E+05; -0.986002     ; 0.0545926    
   2.11716301549E+05; -0.985879     ; 0.0553649    
   2.12704744642E+05; -0.986164     ; 0.055726     
   2.13697802493E+05; -0.985377     ; 0.0555375    
   2.14695496648E+05; -0.986378     ; 0.0563772    
   2.15697848754E+05; -0.986111     ; 0.05599      
   2.16704880555E+05; -0.985994     ; 0.0561224    
   2.17716613901E+05; -0.985515     ; 0.0565069    
   2.18733070742E+05; -0.985748     ; 0.0572584    
   2.19754273131E+05; -0.986414     ; 0.05733      
   2.20780243222E+05; -0.985463     ; 0.057269     
   2.21811003275E+05; -0.985932     ; 0.0580111    
   2.22846575654E+05; -0.985582     ; 0.0580663    
   2.23886982825E+05; -0.98608      ; 0.0581912    
   2.24932247360E+05; -0.985199     ; 0.0581323    
   2.25982391938E+05; -0.985086     ; 0.0590261    
   2.27037439341E+05; -0.985519     ; 0.059319     
   2.28097412461E+05; -0.985303     ; 0.0593362    
   2.29162334293E+05; -0.986027     ; 0.0594697    
   2.30232227941E+05; -0.98537      ; 0.0592419    
   2.31307116618E+05; -0.985553     ; 0.0599526    
   2.32387023644E+05; -0.985196     ; 0.0606914    
   2.33471972449E+05; -0.98509      ; 0.0604563    
   2.34561986570E+05; -0.985957     ; 0.0615381    
   2.35657089656E+05; -0.985161     ; 0.0614677    
   2.36757305467E+05; -0.985648     ; 0.061066     
   2.37862657872E+05; -0.985194     ; 0.0615437    
   2.38973170853E+05; -0.985468     ; 0.0622504    
   2.40088868502E+05; -0.985418     ; 0.0622228    
   2.41209775025E+05; -0.985088     ; 0.062821     
   2.42335914742E+05; -0.9859       ; 0.0633657    
   2.43467312084E+05; -0.985133     ; 0.0631184    
   2.44603991599E+05; -0.985324     ; 0.063045     
   2.45745977946E+05; -0.98482      ; 0.0636401    
   2.46893295901E+05; -0.984896     ; 0.0642698    
   2.48045970358E+05; -0.985566     ; 0.0643786    
   2.49204026323E+05; -0.984931     ; 0.0647583    
   2.50367488922E+05; -0.985783     ; 0.0642873    
   2.51536383396E+05; -0.984924     ; 0.0648751    
   2.52710735105E+05; -0.985098     ; 0.0650695    
   2.53890569527E+05; -0.984896     ; 0.0655487    
   2.55075912261E+05; -0.984544     ; 0.0664636    
   2.56266789022E+05; -0.985501     ; 0.0663955    
   2.57463225647E+05; -0.984923     ; 0.0666871    
   2.58665248094E+05; -0.985128     ; 0.0666807    
   2.59872882442E+05; -0.984329     ; 0.0674405    
   2.61086154890E+05; -0.984535     ; 0.067053     
   2.62305091761E+05; -0.984817     ; 0.0681815    
   2.63529719502E+05; -0.984714     ; 0.0687032    
   2.64760064680E+05; -0.985461     ; 0.068468     
   2.65996153990E+05; -0.985021     ; 0.068485     
   2.67238014248E+05; -0.984542     ; 0.0685568    
   2.68485672398E+05; -0.984495     ; 0.0691975    
   2.69739155508E+05; -0.983749     ; 0.0693875    
   2.70998490774E+05; -0.984004     ; 0.0702795    
   2.72263705518E+05; -0.98441      ; 0.0707974    
   2.73534827189E+05; -0.984879     ; 0.0706115    
   2.74811883365E+05; -0.983767     ; 0.0707792    
   2.76094901752E+05; -0.984057     ; 0.0707603    
   2.77383910186E+05; -0.983843     ; 0.071547     
   2.78678936634E+05; -0.984002     ; 0.0715813    
   2.79980009191E+05; -0.984016     ; 0.0722946    
   2.81287156085E+05; -0.983899     ; 0.072547     
   2.82600405676E+05; -0.984526     ; 0.07268      
   2.83919786454E+05; -0.983852     ; 0.0731061    
   2.85245327046E+05; -0.983426     ; 0.0733267    
   2.86577056209E+05; -0.983974     ; 0.0734679    
   2.87915002836E+05; -0.983331     ; 0.0740866    
   2.89259195955E+05; -0.983588     ; 0.0743997    
   2.90609664728E+05; -0.983755     ; 0.0748086    
   2.91966438456E+05; -0.984079     ; 0.0745568    
   2.93329546573E+05; -0.984466     ; 0.0754086    
   2.94699018654E+05; -0.983609     ; 0.0753499    
   2.96074884410E+05; -0.983847     ; 0.075845     
   2.97457173691E+05; -0.983711     ; 0.0762674    
   2.98845916487E+05; -0.982885     ; 0.0765477    
   3.00241142927E+05; -0.983187     ; 0.0769997    
   3.01642883282E+05; -0.983737     ; 0.0776241    
   3.03051167963E+05; -0.983899     ; 0.0773415    
   3.04466027525E+05; -0.983236     ; 0.0775768    
   3.05887492662E+05; -0.983047     ; 0.0781194    
   3.07315594215E+05; -0.983395     ; 0.0784789    
   3.08750363168E+05; -0.982693     ; 0.078898     
   3.10191830648E+05; -0.983214     ; 0.0794914    
   3.11640027929E+05; -0.983403     ; 0.0800478    
   3.13094986430E+05; -0.98337      ; 0.0798118    
   3.14556737718E+05; -0.983314     ; 0.0802497    
   3.16025313507E+05; -0.982651     ; 0.0807544    
   3.17500745657E+05; -0.983078     ; 0.0805417    
   3.18983066180E+05; -0.9826       ; 0.081612     
   3.20472307235E+05; -0.982537     ; 0.0819506    
   3.21968501132E+05; -0.983188     ; 0.0822656    
   3.23471680332E+05; -0.983016     ; 0.0823771    
   3.24981877448E+05; -0.982558     ; 0.0829666    
   3.26499125243E+05; -0.98216      ; 0.0836091    
   3.28023456637E+05; -0.982509     ; 0.0835192    
   3.29554904699E+05; -0.981976     ; 0.0844182    
   3.31093502656E+05; -0.981905     ; 0.0845824    
   3.32639283888E+05; -0.982575     ; 0.0847175    
   3.34192281933E+05; -0.982737     ; 0.0846783    
   3.35752530483E+05; -0.981933     ; 0.08576      
   3.37320063389E+05; -0.982186     ; 0.0858068    
   3.38894914659E+05; -0.982193     ; 0.086004     
   3.40477118462E+05; -0.982348     ; 0.0871638    
   3.42066709123E+05; -0.982067     ; 0.0865863    
   3.43663721130E+05; -0.982086     ; 0.0870614    
   3.45268189131E+05; -0.981908     ; 0.0871505    
   3.46880147937E+05; -0.981473     ; 0.0880307    
   3.48499632518E+05; -0.981408     ; 0.0889903    
   3.50126678012E+05; -0.980885     ; 0.0890621    
   3.51761319717E+05; -0.982248     ; 0.0895889    
   3.53403593099E+05; -0.981684     ; 0.0891194    
   3.55053533788E+05; -0.98117      ; 0.0897712    
   3.56711177579E+05; -0.981295     ; 0.0903111    
   3.58376560437E+05; -0.981107     ; 0.090348     
   3.60049718493E+05; -0.980799     ; 0.0915199    
   3.61730688047E+05; -0.980582     ; 0.0916421    
   3.63419505570E+05; -0.981409     ; 0.0924972    
   3.65116207700E+05; -0.98163      ; 0.092282     
   3.66820831249E+05; -0.980765     ; 0.0921631    
   3.68533413199E+05; -0.980433     ; 0.0934675    
   3.70253990707E+05; -0.980304     ; 0.0937143    
   3.71982601101E+05; -0.980848     ; 0.0943749    
   3.73719281885E+05; -0.980903     ; 0.0945544    
   3.75464070736E+05; -0.981296     ; 0.0948639    
   3.77217005509E+05; -0.980892     ; 0.0947277    
   3.78978124235E+05; -0.980458     ; 0.0950172    
   3.80747465123E+05; -0.980335     ; 0.0957333    
   3.82525066560E+05; -0.980224     ; 0.0966209    
   3.84310967111E+05; -0.980662     ; 0.0975162    
   3.86105205523E+05; -0.98046      ; 0.0973612    
   3.87907820723E+05; -0.980889     ; 0.0971473    
   3.89718851819E+05; -0.980489     ; 0.0974276    
   3.91538338104E+05; -0.97991      ; 0.0977995    
   3.93366319052E+05; -0.980177     ; 0.099222     
   3.95202834322E+05; -0.979602     ; 0.0997458    
   3.97047923759E+05; -0.980056     ; 0.100045     
   3.98901627392E+05; -0.97994      ; 0.0997538    
   4.00763985440E+05; -0.979314     ; 0.100785     
   4.02635038307E+05; -0.97975      ; 0.100761     
   4.04514826587E+05; -0.978711     ; 0.101901     
   4.06403391062E+05; -0.978947     ; 0.102206     
   4.08300772707E+05; -0.979401     ; 0.102536     
   4.10207012686E+05; -0.979775     ; 0.102028     
   4.12122152357E+05; -0.979508     ; 0.102869     
   4.14046233269E+05; -0.978889     ; 0.103189     
   4.15979297167E+05; -0.979104     ; 0.10393      
   4.17921385989E+05; -0.978371     ; 0.104323     
   4.19872541871E+05; -0.979095     ; 0.104993     
   4.21832807144E+05; -0.979243     ; 0.105504     
   4.23802224337E+05; -0.978869     ; 0.105134     
   4.25780836177E+05; -0.978535     ; 0.105546     
   4.27768685592E+05; -0.97822      ; 0.106418     
   4.29765815710E+05; -0.978504     ; 0.107        
   4.31772269860E+05; -0.978601     ; 0.108247     
   4.33788091572E+05; -0.978638     ; 0.1079       
   4.35813324582E+05; -0.978401     ; 0.108341     
   4.37848012827E+05; -0.977879     ; 0.10838      
   4.39892200452E+05; -0.978137     ; 0.109314     
   4.41945931807E+05; -0.977726     ; 0.110239     
   4.44009251449E+05; -0.977466     ; 0.110404     
   4.46082204141E+05; -0.9781       ; 0.110847     
   4.48164834860E+05; -0.978354     ; 0.110506     
   4.50257188788E+05; -0.977804     ; 0.111461     
   4.52359311320E+05; -0.97763      ; 0.111825     
   4.54471248063E+05; -0.977216     ; 0.112637     
   4.56593044838E+05; -0.977211     ; 0.113805     
   4.58724747677E+05; -0.977461     ; 0.113507     
   4.60866402829E+05; -0.977727     ; 0.114134     
   4.63018056759E+05; -0.976987     ; 0.114362     
   4.65179756148E+05; -0.976986     ; 0.115434     
   4.67351547896E+05; -0.976856     ; 0.116119     
   4.69533479120E+05; -0.97721      ; 0.115907     
   4.71725597160E+05; -0.977184     ; 0.116841     
   4.73927949575E+05; -0.976992     ; 0.116692     
   4.76140584145E+05; -0.976932     ; 0.116979     
   4.78363548876E+05; -0.975807     ; 0.117247     
   4.80596891996E+05; -0.975872     ; 0.118502     
   4.82840661958E+05; -0.976237     ; 0.119602     
   4.85094907443E+05; -0.97611      ; 0.119897     
   4.87359677358E+05; -0.977002     ; 0.1201       
   4.89635020839E+05; -0.976428     ; 0.119958     
   4.91920987250E+05; -0.976022     ; 0.120818     
   4.94217626187E+05; -0.974962     ; 0.121348     
   4.96524987477E+05; -0.975288     ; 0.122206     
   4.98843121179E+05; -0.975872     ; 0.123222     
   5.01172077587E+05; -0.975792     ; 0.12275      
   5.03511907229E+05; -0.975136     ; 0.123654     
   5.05862660869E+05; -0.975387     ; 0.124051     
   5.08224389508E+05; -0.97489      ; 0.1245       
   5.10597144385E+05; -0.974714     ; 0.125715     
   5.12980976978E+05; -0.974497     ; 0.126149     
   5.15375939007E+05; -0.97531      ; 0.126387     
   5.17782082431E+05; -0.974765     ; 0.126591     
   5.20199459453E+05; -0.974554     ; 0.127333     
   5.22628122520E+05; -0.974694     ; 0.128341     
   5.25068124323E+05; -0.973883     ; 0.128119     
   5.27519517799E+05; -0.974113     ; 0.129484     
   5.29982356133E+05; -0.974245     ; 0.129225     
   5.32456692757E+05; -0.97417      ; 0.130124     
   5.34942581354E+05; -0.974387     ; 0.13062      
   5.37440075856E+05; -0.973308     ; 0.131388     
   5.39949230449E+05; -0.97372      ; 0.131836     
   5.42470099570E+05; -0.973194     ; 0.13273      
   5.45002737910E+05; -0.973283     ; 0.133195     
   5.47547200417E+05; -0.973427     ; 0.133371     
   5.50103542295E+05; -0.973223     ; 0.133856     
   5.52671819005E+05; -0.973063     ; 0.134529     
   5.55252086267E+05; -0.972298     ; 0.135515     
   5.57844400061E+05; -0.972421     ; 0.136223     
   5.60448816631E+05; -0.972652     ; 0.136856     
   5.63065392479E+05; -0.97296      ; 0.136656     
   5.65694184374E+05; -0.972549     ; 0.137791     
   5.68335249350E+05; -0.971915     ; 0.138071     
   5.70988644705E+05; -0.972599     ; 0.138192     
   5.73654428008E+05; -0.971779     ; 0.139248     
   5.76332657093E+05; -0.972068     ; 0.140013     
   5.79023390067E+05; -0.971578     ; 0.140793     
   5.81726685306E+05; -0.971474     ; 0.141337     
   5.84442601461E+05; -0.971941     ; 0.142017     
   5.87171197454E+05; -0.971746     ; 0.142504     
   5.89912532485E+05; -0.971599     ; 0.142989     
   5.92666666028E+05; -0.97061      ; 0.143342     
   5.95433657835E+05; -0.970618     ; 0.143829     
   5.98213567940E+05; -0.97033      ; 0.144814     
   6.01006456652E+05; -0.970322     ; 0.145628     
   6.03812384566E+05; -0.970851     ; 0.146159     
   6.06631412558E+05; -0.970224     ; 0.147685     
   6.09463601789E+05; -0.970088     ; 0.147766     
   6.12309013704E+05; -0.970519     ; 0.147972     
   6.15167710037E+05; -0.969726     ; 0.148594     
   6.18039752809E+05; -0.96966      ; 0.149208     
   6.20925204330E+05; -0.969401     ; 0.150534     
   6.23824127202E+05; -0.969626     ; 0.1508       
   6.26736584319E+05; -0.969895     ; 0.151854     
   6.29662638868E+05; -0.969468     ; 0.151975     
   6.32602354333E+05; -0.969559     ; 0.152759     
   6.35555794491E+05; -0.968629     ; 0.152763     
   6.38523023420E+05; -0.968457     ; 0.154069     
   6.41504105496E+05; -0.969093     ; 0.155004     
   6.44499105394E+05; -0.968196     ; 0.15487      
   6.47508088094E+05; -0.968753     ; 0.15613      
   6.50531118876E+05; -0.968717     ; 0.156563     
   6.53568263328E+05; -0.967744     ; 0.156706     
   6.56619587343E+05; -0.967522     ; 0.157993     
   6.59685157119E+05; -0.967377     ; 0.158244     
   6.62765039168E+05; -0.967762     ; 0.15948      
   6.65859300308E+05; -0.967487     ; 0.159299     
   6.68968007672E+05; -0.967272     ; 0.160887     
   6.72091228705E+05; -0.967186     ; 0.161146     
   6.75229031167E+05; -0.966456     ; 0.161806     
   6.78381483135E+05; -0.966261     ; 0.16332      
   6.81548653003E+05; -0.966133     ; 0.163351     
   6.84730609485E+05; -0.966436     ; 0.164226     
   6.87927421615E+05; -0.966195     ; 0.164836     
   6.91139158750E+05; -0.96568      ; 0.165312     
   6.94365890570E+05; -0.965463     ; 0.166264     
   6.97607687083E+05; -0.965101     ; 0.166928     
   7.00864618619E+05; -0.965147     ; 0.167883     
   7.04136755841E+05; -0.965075     ; 0.168152     
   7.07424169739E+05; -0.964903     ; 0.168954     
   7.10726931637E+05; -0.964956     ; 0.1699       
   7.14045113188E+05; -0.964251     ; 0.171115     
   7.17378786384E+05; -0.964448     ; 0.171684     
   7.20728023550E+05; -0.963729     ; 0.172462     
   7.24092897350E+05; -0.964201     ; 0.17326      
   7.27473480788E+05; -0.964137     ; 0.173582     
   7.30869847206E+05; -0.963805     ; 0.174293     
   7.34282070291E+05; -0.963685     ; 0.174796     
   7.37710224074E+05; -0.962572     ; 0.175674     
   7.41154382930E+05; -0.963008     ; 0.176447     
   7.44614621583E+05; -0.963079     ; 0.177276     
   7.48091015104E+05; -0.962205     ; 0.177911     
   7.51583638916E+05; -0.962488     ; 0.178992     
   7.55092568793E+05; -0.962438     ; 0.180245     
   7.58617880864E+05; -0.962062     ; 0.1809       
   7.62159651613E+05; -0.962315     ; 0.180831     
   7.65717957881E+05; -0.961767     ; 0.181608     
   7.69292876866E+05; -0.961394     ; 0.182533     
   7.72884486130E+05; -0.960742     ; 0.183528     
   7.76492863594E+05; -0.96146      ; 0.181519     
   7.80118087545E+05; -0.9607       ; 0.18467      
   7.83760236633E+05; -0.960304     ; 0.186431     
   7.87419389878E+05; -0.960275     ; 0.186869     
   7.91095626666E+05; -0.959975     ; 0.187863     
   7.94789026757E+05; -0.959711     ; 0.189095     
   7.98499670281E+05; -0.959902     ; 0.189494     
   8.02227637742E+05; -0.959567     ; 0.188418     
   8.05973010021E+05; -0.959289     ; 0.190021     
   8.09735868376E+05; -0.958808     ; 0.192104     
   8.13516294445E+05; -0.9585       ; 0.192669     
   8.17314370245E+05; -0.958715     ; 0.192828     
   8.21130178180E+05; -0.958331     ; 0.194763     
   8.24963801035E+05; -0.958217     ; 0.195228     
   8.28815321983E+05; -0.957608     ; 0.195908     
   8.32684824584E+05; -0.957484     ; 0.196425     
   8.36572392791E+05; -0.957603     ; 0.196961     
   8.40478110946E+05; -0.957159     ; 0.198046     
   8.44402063787E+05; -0.956592     ; 0.1988       
   8.48344336445E+05; -0.956592     ; 0.200352     
   8.52305014451E+05; -0.956384     ; 0.200454     
   8.56284183734E+05; -0.95644      ; 0.201256     
   8.60281930626E+05; -0.956308     ; 0.201767     
   8.64298341858E+05; -0.955137     ; 0.203286     
   8.68333504570E+05; -0.955232     ; 0.204492     
   8.72387506307E+05; -0.954869     ; 0.204866     
   8.76460435023E+05; -0.95562      ; 0.205654     
   8.80552379083E+05; -0.954305     ; 0.206409     
   8.84663427264E+05; -0.954275     ; 0.207424     
   8.88793668757E+05; -0.954224     ; 0.207972     
   8.92943193172E+05; -0.953351     ; 0.209457     
   8.97112090533E+05; -0.953504     ; 0.210563     
   9.01300451289E+05; -0.953254     ; 0.210733     
   9.05508366308E+05; -0.952941     ; 0.212002     
   9.09735926883E+05; -0.952881     ; 0.212632     
   9.13983224734E+05; -0.952127     ; 0.213878     
   9.18250352008E+05; -0.951945     ; 0.214263     
   9.22537401284E+05; -0.951832     ; 0.215572     
   9.26844465572E+05; -0.951996     ; 0.216804     
   9.31171638315E+05; -0.951326     ; 0.217211     
   9.35519013396E+05; -0.950651     ; 0.218318     
   9.39886685132E+05; -0.950954     ; 0.218946     
   9.44274748283E+05; -0.949633     ; 0.220234     
   9.48683298050E+05; -0.949636     ; 0.220504     
   9.53112430081E+05; -0.950445     ; 0.222137     
   9.57562240467E+05; -0.949618     ; 0.222497     
   9.62032825750E+05; -0.948976     ; 0.223448     
   9.66524282922E+05; -0.948503     ; 0.225408     
   9.71036709427E+05; -0.949023     ; 0.226178     
   9.75570203167E+05; -0.947699     ; 0.229973     
   9.80124862497E+05; -0.947882     ; 0.227649     
   9.84700786234E+05; -0.947479     ; 0.228771     
   9.89298073655E+05; -0.948153     ; 0.229313     
   9.93916824501E+05; -0.947435     ; 0.230445     
   9.98557138979E+05; -0.947642     ; 0.23001      
   1.00321911776E+06; -0.946663     ; 0.232663     
   1.00790286200E+06; -0.94615      ; 0.23332      
   1.01260847330E+06; -0.945532     ; 0.234927     
   1.01733605376E+06; -0.945807     ; 0.235521     
   1.02208570595E+06; -0.945016     ; 0.237197     
   1.02685753291E+06; -0.944992     ; 0.237974     
   1.03165163817E+06; -0.945144     ; 0.238414     
   1.03646812574E+06; -0.943941     ; 0.239216     
   1.04130710012E+06; -0.943947     ; 0.239518     
   1.04616866629E+06; -0.943166     ; 0.241998     
   1.05105292973E+06; -0.942927     ; 0.24295      
   1.05595999641E+06; -0.94308      ; 0.243988     
   1.06088997278E+06; -0.943036     ; 0.245152     
   1.06584296581E+06; -0.943079     ; 0.245569     
   1.07081908295E+06; -0.941503     ; 0.246439     
   1.07581843216E+06; -0.941676     ; 0.247608     
   1.08084112191E+06; -0.941081     ; 0.248974     
   1.08588726117E+06; -0.940928     ; 0.250266     
   1.09095695941E+06; -0.940492     ; 0.25088      
   1.09605032663E+06; -0.939766     ; 0.251848     
   1.10116747333E+06; -0.93982      ; 0.252898     
   1.10630851053E+06; -0.939056     ; 0.254385     
   1.11147354977E+06; -0.939343     ; 0.253574     
   1.11666270311E+06; -0.938455     ; 0.25617      
   1.12187608312E+06; -0.937588     ; 0.257474     
   1.12711380292E+06; -0.937334     ; 0.258995     
   1.13237597614E+06; -0.937344     ; 0.259846     
   1.13766271695E+06; -0.937504     ; 0.260257     
   1.14297414004E+06; -0.936548     ; 0.261337     
   1.14831036066E+06; -0.936332     ; 0.262802     
   1.15367149457E+06; -0.935661     ; 0.263716     
   1.15905765809E+06; -0.93499      ; 0.26487      
   1.16446896807E+06; -0.935474     ; 0.266298     
   1.16990554191E+06; -0.93469      ; 0.266913     
   1.17536749757E+06; -0.93412      ; 0.268391     
   1.18085495355E+06; -0.93384      ; 0.26903      
   1.18636802889E+06; -0.933203     ; 0.270507     
   1.19190684321E+06; -0.933188     ; 0.27179      
   1.19747151667E+06; -0.932246     ; 0.272434     
   1.20306217002E+06; -0.932214     ; 0.273321     
   1.20867892452E+06; -0.931436     ; 0.274578     
   1.21432190206E+06; -0.930901     ; 0.27595      
   1.21999122505E+06; -0.930383     ; 0.276986     
   1.22568701649E+06; -0.930285     ; 0.277678     
   1.23140939996E+06; -0.92935      ; 0.27909      
   1.23715849961E+06; -0.929803     ; 0.280292     
   1.24293444017E+06; -0.92836      ; 0.281723     
   1.24873734695E+06; -0.928376     ; 0.282933     
   1.25456734585E+06; -0.927848     ; 0.284006     
   1.26042456335E+06; -0.92714      ; 0.285614     
   1.26630912653E+06; -0.927087     ; 0.286795     
   1.27222116306E+06; -0.926995     ; 0.287789     
   1.27816080120E+06; -0.92618      ; 0.288346     
   1.28412816982E+06; -0.92519      ; 0.289635     
   1.29012339839E+06; -0.925209     ; 0.291313     
   1.29614661697E+06; -0.92512      ; 0.292591     
   1.30219795624E+06; -0.92458      ; 0.293965     
   1.30827754749E+06; -0.924144     ; 0.294652     
   1.31438552262E+06; -0.923596     ; 0.296033     
   1.32052201414E+06; -0.923719     ; 0.297257     
   1.32668715520E+06; -0.922274     ; 0.298519     
   1.33288107954E+06; -0.921694     ; 0.299915     
   1.33910392155E+06; -0.921436     ; 0.300943     
   1.34535581624E+06; -0.920998     ; 0.302556     
   1.35163689924E+06; -0.921001     ; 0.303292     
   1.35794730683E+06; -0.919541     ; 0.304804     
   1.36428717592E+06; -0.919985     ; 0.306714     
   1.37065664404E+06; -0.919525     ; 0.30782      
   1.37705584940E+06; -0.918435     ; 0.308289     
   1.38348493083E+06; -0.917499     ; 0.309841     
   1.38994402780E+06; -0.916966     ; 0.31127      
   1.39643328046E+06; -0.91717      ; 0.312548     
   1.40295282959E+06; -0.915945     ; 0.313984     
   1.40950281664E+06; -0.916195     ; 0.315478     
   1.41608338371E+06; -0.915781     ; 0.315871     
   1.42269467357E+06; -0.914661     ; 0.317528     
   1.42933682967E+06; -0.914006     ; 0.318804     
   1.43600999609E+06; -0.913257     ; 0.320677     
   1.44271431763E+06; -0.913115     ; 0.321754     
   1.44944993974E+06; -0.912048     ; 0.323012     
   1.45621700855E+06; -0.911765     ; 0.324479     
   1.46301567087E+06; -0.911658     ; 0.325347     
   1.46984607422E+06; -0.910887     ; 0.327648     
   1.47670836676E+06; -0.910375     ; 0.328713     
   1.48360269740E+06; -0.909869     ; 0.329295     
   1.49052921570E+06; -0.909287     ; 0.331265     
   1.49748807195E+06; -0.90814      ; 0.332102     
   1.50447941711E+06; -0.907679     ; 0.333806     
   1.51150340287E+06; -0.90704      ; 0.335093     
   1.51856018161E+06; -0.906957     ; 0.336803     
   1.52564990645E+06; -0.90663      ; 0.338001     
   1.53277273119E+06; -0.905389     ; 0.339368     
   1.53992881038E+06; -0.905476     ; 0.340938     
   1.54711829925E+06; -0.904805     ; 0.341802     
   1.55434135380E+06; -0.903762     ; 0.343051     
   1.56159813074E+06; -0.902799     ; 0.344822     
   1.56888878750E+06; -0.902277     ; 0.346593     
   1.57621348226E+06; -0.90181      ; 0.347591     
   1.58357237393E+06; -0.900505     ; 0.349423     
   1.59096562217E+06; -0.900563     ; 0.351008     
   1.59839338738E+06; -0.899979     ; 0.352197     
   1.60585583071E+06; -0.898975     ; 0.353386     
   1.61335311406E+06; -0.89863      ; 0.354585     
   1.62088540009E+06; -0.897245     ; 0.356258     
   1.62845285222E+06; -0.897275     ; 0.357705     
   1.63605563463E+06; -0.89635      ; 0.359393     
   1.64369391226E+06; -0.895734     ; 0.361143     
   1.65136785083E+06; -0.895442     ; 0.362302     
   1.65907761684E+06; -0.894156     ; 0.364106     
   1.66682337755E+06; -0.894003     ; 0.365695     
   1.67460530100E+06; -0.893085     ; 0.367053     
   1.68242355604E+06; -0.892431     ; 0.367637     
   1.69027831229E+06; -0.891751     ; 0.37001      
   1.69816974015E+06; -0.89038      ; 0.371267     
   1.70609801085E+06; -0.889708     ; 0.372781     
   1.71406329638E+06; -0.8892       ; 0.374474     
   1.72206576956E+06; -0.888921     ; 0.375798     
   1.73010560400E+06; -0.887517     ; 0.377609     
   1.73818297415E+06; -0.887277     ; 0.379474     
   1.74629805523E+06; -0.88636      ; 0.380444     
   1.75445102331E+06; -0.885695     ; 0.382389     
   1.76264205528E+06; -0.884811     ; 0.382978     
   1.77087132885E+06; -0.883729     ; 0.384531     
   1.77913902254E+06; -0.882979     ; 0.386172     
   1.78744531575E+06; -0.882218     ; 0.388467     
   1.79579038867E+06; -0.881127     ; 0.389543     
   1.80417442236E+06; -0.880296     ; 0.391386     
   1.81259759871E+06; -0.879864     ; 0.393281     
   1.82106010047E+06; -0.879116     ; 0.394757     
   1.82956211125E+06; -0.878251     ; 0.396371     
   1.83810381549E+06; -0.877476     ; 0.397712     
   1.84668539851E+06; -0.876166     ; 0.399039     
   1.85530704650E+06; -0.875281     ; 0.40078      
   1.86396894651E+06; -0.87483      ; 0.40235      
   1.87267128646E+06; -0.873768     ; 0.404508     
   1.88141425515E+06; -0.872716     ; 0.405671     
   1.89019804228E+06; -0.871945     ; 0.407558     
   1.89902283840E+06; -0.871141     ; 0.409257     
   1.90788883499E+06; -0.869995     ; 0.410853     
   1.91679622438E+06; -0.868957     ; 0.412795     
   1.92574519984E+06; -0.868703     ; 0.414314     
   1.93473595552E+06; -0.867421     ; 0.416456     
   1.94376868647E+06; -0.867302     ; 0.417758     
   1.95284358867E+06; -0.866018     ; 0.41957      
   1.96196085901E+06; -0.864842     ; 0.420933     
   1.97112069528E+06; -0.86403      ; 0.421902     
   1.98032329621E+06; -0.862317     ; 0.424141     
   1.98956886147E+06; -0.861383     ; 0.425114     
   1.99885759164E+06; -0.85998      ; 0.42775      
   2.00818968825E+06; -0.859978     ; 0.429784     
   2.01756535375E+06; -0.859063     ; 0.431275     
   2.02698479156E+06; -0.858065     ; 0.432984     
   2.03644820605E+06; -0.856512     ; 0.434653     
   2.04595580252E+06; -0.855592     ; 0.435923     
   2.05550778725E+06; -0.854512     ; 0.438407     
   2.06510436748E+06; -0.853516     ; 0.439997     
   2.07474575141E+06; -0.85223      ; 0.441857     
   2.08443214821E+06; -0.851647     ; 0.442979     
   2.09416376803E+06; -0.85171      ; 0.445705     
   2.10394082202E+06; -0.849462     ; 0.447555     
   2.11376352229E+06; -0.848163     ; 0.44873      
   2.12363208194E+06; -0.846923     ; 0.451025     
   2.13354671509E+06; -0.845122     ; 0.453163     
   2.14350763684E+06; -0.844317     ; 0.453801     
   2.15351506329E+06; -0.843649     ; 0.456918     
   2.16356921157E+06; -0.842187     ; 0.457944     
   2.17367029980E+06; -0.841267     ; 0.460073     
   2.18381854713E+06; -0.839754     ; 0.461442     
   2.19401417374E+06; -0.838774     ; 0.462892     
   2.20425740082E+06; -0.838215     ; 0.464838     
   2.21454845061E+06; -0.83692      ; 0.466987     
   2.22488754638E+06; -0.835944     ; 0.468918     
   2.23527491245E+06; -0.834352     ; 0.470591     
   2.24571077416E+06; -0.833081     ; 0.472273     
   2.25619535795E+06; -0.832912     ; 0.473795     
   2.26672889126E+06; -0.831523     ; 0.476436     
   2.27731160265E+06; -0.829711     ; 0.478472     
   2.28794372169E+06; -0.827998     ; 0.480019     
   2.29862547907E+06; -0.826746     ; 0.481551     
   2.30935710654E+06; -0.825766     ; 0.484025     
   2.32013883691E+06; -0.824249     ; 0.485404     
   2.33097090411E+06; -0.823402     ; 0.486942     
   2.34185354315E+06; -0.821807     ; 0.48876      
   2.35278699013E+06; -0.821001     ; 0.491184     
   2.36377148226E+06; -0.819757     ; 0.49289      
   2.37480725785E+06; -0.818302     ; 0.49469      
   2.38589455633E+06; -0.816666     ; 0.496629     
   2.39703361825E+06; -0.816031     ; 0.498684     
   2.40822468528E+06; -0.814641     ; 0.500387     
   2.41946800021E+06; -0.813394     ; 0.502605     
   2.43076380698E+06; -0.811397     ; 0.504987     
   2.44211235065E+06; -0.810004     ; 0.506823     
   2.45351387743E+06; -0.808892     ; 0.508588     
   2.46496863470E+06; -0.806911     ; 0.510527     
   2.47647687096E+06; -0.805817     ; 0.512887     
   2.48803883590E+06; -0.804299     ; 0.514541     
   2.49965478036E+06; -0.8031       ; 0.516146     
   2.51132495636E+06; -0.801824     ; 0.51839      
   2.52304961708E+06; -0.800031     ; 0.519889     
   2.53482901691E+06; -0.799538     ; 0.522272     
   2.54666341139E+06; -0.797247     ; 0.523122     
   2.55855305729E+06; -0.796205     ; 0.525312     
   2.57049821256E+06; -0.794948     ; 0.527609     
   2.58249913636E+06; -0.792956     ; 0.529246     
   2.59455608905E+06; -0.790864     ; 0.531779     
   2.60666933222E+06; -0.788865     ; 0.533591     
   2.61883912867E+06; -0.788018     ; 0.536089     
   2.63106574243E+06; -0.786435     ; 0.537872     
   2.64334943877E+06; -0.784541     ; 0.540578     
   2.65569048418E+06; -0.783767     ; 0.541564     
   2.66808914643E+06; -0.781911     ; 0.543417     
   2.68054569449E+06; -0.78032      ; 0.545547     
   2.69306039863E+06; -0.778598     ; 0.547334     
   2.70563353035E+06; -0.77674      ; 0.549419     
   2.71826536245E+06; -0.775028     ; 0.552259     
   2.73095616896E+06; -0.773524     ; 0.553938     
   2.74370622524E+06; -0.77133      ; 0.556451     
   2.75651580790E+06; -0.770104     ; 0.558772     
   2.76938519486E+06; -0.769086     ; 0.559968     
   2.78231466531E+06; -0.767056     ; 0.561431     
   2.79530449978E+06; -0.765053     ; 0.563812     
   2.80835498008E+06; -0.762899     ; 0.56571      
   2.82146638936E+06; -0.761436     ; 0.567744     
   2.83463901207E+06; -0.759486     ; 0.569697     
   2.84787313400E+06; -0.757796     ; 0.572108     
   2.86116904228E+06; -0.756809     ; 0.57433      
   2.87452702537E+06; -0.754371     ; 0.57573      
   2.88794737307E+06; -0.752563     ; 0.578242     
   2.90143037655E+06; -0.750415     ; 0.579985     
   2.91497632834E+06; -0.748708     ; 0.582677     
   2.92858552231E+06; -0.746946     ; 0.584907     
   2.94225825374E+06; -0.745248     ; 0.585841     
   2.95599481925E+06; -0.743157     ; 0.587751     
   2.96979551687E+06; -0.741052     ; 0.590831     
   2.98366064602E+06; -0.739386     ; 0.592074     
   2.99759050750E+06; -0.737606     ; 0.594372     
   3.01158540354E+06; -0.735058     ; 0.596626     
   3.02564563777E+06; -0.733548     ; 0.599385     
   3.03977151522E+06; -0.732475     ; 0.600612     
   3.05396334236E+06; -0.729507     ; 0.603158     
   3.06822142711E+06; -0.72819      ; 0.605721     
   3.08254607879E+06; -0.726152     ; 0.607898     
   3.09693760819E+06; -0.72321      ; 0.609134     
   3.11139632753E+06; -0.720908     ; 0.611832     
   3.12592255052E+06; -0.719747     ; 0.614242     
   3.14051659231E+06; -0.717515     ; 0.616157     
   3.15517876952E+06; -0.715415     ; 0.617815     
   3.16990940026E+06; -0.713137     ; 0.619719     
   3.18470880411E+06; -0.711628     ; 0.622689     
   3.19957730217E+06; -0.708475     ; 0.624268     
   3.21451521700E+06; -0.706983     ; 0.626928     
   3.22952287271E+06; -0.704386     ; 0.628488     
   3.24460059488E+06; -0.70236      ; 0.63075      
   3.25974871064E+06; -0.70025      ; 0.632728     
   3.27496754864E+06; -0.698393     ; 0.63471      
   3.29025743906E+06; -0.695654     ; 0.637038     
   3.30561871362E+06; -0.693949     ; 0.639214     
   3.32105170559E+06; -0.691321     ; 0.641703     
   3.33655674981E+06; -0.689511     ; 0.643852     
   3.35213418266E+06; -0.686577     ; 0.646339     
   3.36778434211E+06; -0.684938     ; 0.647574     
   3.38350756769E+06; -0.681639     ; 0.649658     
   3.39930420053E+06; -0.679678     ; 0.652565     
   3.41517458335E+06; -0.677126     ; 0.654405     
   3.43111906047E+06; -0.675666     ; 0.656775     
   3.44713797781E+06; -0.672915     ; 0.659537     
   3.46323168291E+06; -0.670072     ; 0.660639     
   3.47940052493E+06; -0.667378     ; 0.663847     
   3.49564485467E+06; -0.66544      ; 0.66451      
   3.51196502455E+06; -0.662726     ; 0.667853     
   3.52836138867E+06; -0.65983      ; 0.669812     
   3.54483430273E+06; -0.657612     ; 0.672428     
   3.56138412413E+06; -0.654999     ; 0.674094     
   3.57801121194E+06; -0.652426     ; 0.67586      
   3.59471592688E+06; -0.65008      ; 0.678974     
   3.61149863138E+06; -0.647118     ; 0.680696     
   3.62835968954E+06; -0.645134     ; 0.682624     
   3.64529946718E+06; -0.642042     ; 0.68547      
   3.66231833181E+06; -0.639618     ; 0.68713      
   3.67941665268E+06; -0.637134     ; 0.689323     
   3.69659480073E+06; -0.634818     ; 0.691951     
   3.71385314866E+06; -0.6319       ; 0.693886     
   3.73119207091E+06; -0.629004     ; 0.695387     
   3.74861194364E+06; -0.626652     ; 0.697863     
   3.76611314479E+06; -0.622659     ; 0.699993     
   3.78369605406E+06; -0.621003     ; 0.701846     
   3.80136105293E+06; -0.617979     ; 0.704663     
   3.81910852465E+06; -0.614509     ; 0.706925     
   3.83693885425E+06; -0.612084     ; 0.708277     
   3.85485242859E+06; -0.608757     ; 0.711179     
   3.87284963629E+06; -0.606584     ; 0.71298      
   3.89093086784E+06; -0.604156     ; 0.715373     
   3.90909651550E+06; -0.601108     ; 0.717778     
   3.92734697339E+06; -0.59773      ; 0.719905     
   3.94568263748E+06; -0.594735     ; 0.721969     
   3.96410390555E+06; -0.591774     ; 0.724568     
   3.98261117728E+06; -0.588753     ; 0.726233     
   4.00120485418E+06; -0.585437     ; 0.728273     
   4.01988533967E+06; -0.582608     ; 0.730717     
   4.03865303902E+06; -0.579413     ; 0.73247      
   4.05750835941E+06; -0.576844     ; 0.734265     
   4.07645170992E+06; -0.574076     ; 0.736759     
   4.09548350154E+06; -0.570674     ; 0.738924     
   4.11460414717E+06; -0.567944     ; 0.741144     
   4.13381406165E+06; -0.564413     ; 0.743099     
   4.15311366174E+06; -0.561213     ; 0.745023     
   4.17250336617E+06; -0.557666     ; 0.74712      
   4.19198359560E+06; -0.554865     ; 0.749487     
   4.21155477268E+06; -0.551024     ; 0.751549     
   4.23121732200E+06; -0.547386     ; 0.753511     
   4.25097167017E+06; -0.543845     ; 0.756181     
   4.27081824576E+06; -0.541763     ; 0.758714     
   4.29075747935E+06; -0.537802     ; 0.760295     
   4.31078980355E+06; -0.534141     ; 0.762663     
   4.33091565296E+06; -0.530734     ; 0.764129     
   4.35113546423E+06; -0.527153     ; 0.766929     
   4.37144967604E+06; -0.524252     ; 0.769475     
   4.39185872911E+06; -0.520364     ; 0.771179     
   4.41236306624E+06; -0.517513     ; 0.773199     
   4.43296313227E+06; -0.513761     ; 0.774906     
   4.45365937415E+06; -0.509719     ; 0.777233     
   4.47445224088E+06; -0.50648      ; 0.779596     
   4.49534218358E+06; -0.502929     ; 0.781073     
   4.51632965547E+06; -0.498943     ; 0.783506     
   4.53741511189E+06; -0.495927     ; 0.785368     
   4.55859901030E+06; -0.492144     ; 0.787535     
   4.57988181030E+06; -0.488639     ; 0.789137     
   4.60126397362E+06; -0.484794     ; 0.791805     
   4.62274596417E+06; -0.481293     ; 0.79381      
   4.64432824802E+06; -0.476865     ; 0.794879     
   4.66601129340E+06; -0.473092     ; 0.797686     
   4.68779557074E+06; -0.469356     ; 0.79924      
   4.70968155267E+06; -0.466033     ; 0.801409     
   4.73166971401E+06; -0.461166     ; 0.803105     
   4.75376053181E+06; -0.458199     ; 0.805309     
   4.77595448534E+06; -0.453635     ; 0.806777     
   4.79825205612E+06; -0.450413     ; 0.809475     
   4.82065372791E+06; -0.445413     ; 0.8116       
   4.84315998672E+06; -0.441886     ; 0.812625     
   4.86577132084E+06; -0.437806     ; 0.815235     
   4.88848822084E+06; -0.433055     ; 0.816742     
   4.91131117957E+06; -0.429223     ; 0.818247     
   4.93424069219E+06; -0.425518     ; 0.82075      
   4.95727725617E+06; -0.420818     ; 0.822835     
   4.98042137131E+06; -0.417323     ; 0.82431      
   5.00367353973E+06; -0.413082     ; 0.826424     
   5.02703426589E+06; -0.408314     ; 0.828243     
   5.05050405663E+06; -0.403499     ; 0.829592     
   5.07408342114E+06; -0.40033      ; 0.831256     
   5.09777287099E+06; -0.395942     ; 0.833406     
   5.12157292012E+06; -0.391682     ; 0.835772     
   5.14548408490E+06; -0.386981     ; 0.837316     
   5.16950688410E+06; -0.382577     ; 0.83917      
   5.19364183891E+06; -0.378189     ; 0.84079      
   5.21788947294E+06; -0.373381     ; 0.842238     
   5.24225031227E+06; -0.368835     ; 0.843737     
   5.26672488541E+06; -0.36408      ; 0.845336     
   5.29131372336E+06; -0.360026     ; 0.847207     
   5.31601735960E+06; -0.355987     ; 0.84886      
   5.34083633007E+06; -0.351174     ; 0.849458     
   5.36577117324E+06; -0.346182     ; 0.852112     
   5.39082243010E+06; -0.341489     ; 0.853424     
   5.41599064413E+06; -0.337572     ; 0.855302     
   5.44127636139E+06; -0.332903     ; 0.856156     
   5.46668013045E+06; -0.327989     ; 0.858571     
   5.49220250247E+06; -0.322944     ; 0.859883     
   5.51784403118E+06; -0.317541     ; 0.860823     
   5.54360527288E+06; -0.313085     ; 0.863336     
   5.56948678648E+06; -0.308216     ; 0.864016     
   5.59548913349E+06; -0.303434     ; 0.86613      
   5.62161287805E+06; -0.298309     ; 0.866932     
   5.64785858693E+06; -0.293458     ; 0.868699     
   5.67422682955E+06; -0.288326     ; 0.869603     
   5.70071817798E+06; -0.283719     ; 0.871456     
   5.72733320697E+06; -0.278214     ; 0.872758     
   5.75407249394E+06; -0.273511     ; 0.873974     
   5.78093661903E+06; -0.268112     ; 0.874762     
   5.80792616507E+06; -0.263856     ; 0.876681     
   5.83504171760E+06; -0.258108     ; 0.877109     
   5.86228386493E+06; -0.25356      ; 0.878386     
   5.88965319808E+06; -0.247657     ; 0.879816     
   5.91715031085E+06; -0.242761     ; 0.880725     
   5.94477579980E+06; -0.237392     ; 0.882723     
   5.97253026429E+06; -0.232279     ; 0.883533     
   6.00041430647E+06; -0.2263       ; 0.884097     
   6.02842853130E+06; -0.221289     ; 0.884891     
   6.05657354656E+06; -0.216175     ; 0.88602      
   6.08484996288E+06; -0.210124     ; 0.887858     
   6.11325839373E+06; -0.204687     ; 0.88857      
   6.14179945545E+06; -0.19929      ; 0.889157     
   6.17047376725E+06; -0.19381      ; 0.890354     
   6.19928195125E+06; -0.188377     ; 0.890891     
   6.22822463245E+06; -0.182282     ; 0.892042     
   6.25730243878E+06; -0.176487     ; 0.892824     
   6.28651600111E+06; -0.170993     ; 0.893594     
   6.31586595324E+06; -0.16548      ; 0.894309     
   6.34535293193E+06; -0.159466     ; 0.895335     
   6.37497757692E+06; -0.154154     ; 0.896206     
   6.40474053094E+06; -0.149279     ; 0.897182     
   6.43464243971E+06; -0.142895     ; 0.896723     
   6.46468395198E+06; -0.136318     ; 0.897363     
   6.49486571950E+06; -0.130047     ; 0.898177     
   6.52518839710E+06; -0.125107     ; 0.898638     
   6.55565264265E+06; -0.119453     ; 0.899499     
   6.58625911707E+06; -0.11373      ; 0.89966      
   6.61700848441E+06; -0.107061     ; 0.900138     
   6.64790141178E+06; -0.101524     ; 0.900129     
   6.67893856942E+06; -0.0949274    ; 0.901181     
   6.71012063072E+06; -0.0890889    ; 0.900847     
   6.74144827217E+06; -0.0831624    ; 0.901576     
   6.77292217346E+06; -0.0763621    ; 0.901926     
   6.80454301742E+06; -0.0708569    ; 0.901589     
   6.83631149009E+06; -0.0650064    ; 0.901964     
   6.86822828072E+06; -0.0589234    ; 0.902254     
   6.90029408174E+06; -0.0523061    ; 0.902192     
   6.93250958885E+06; -0.046185     ; 0.901769     
   6.96487550099E+06; -0.0396378    ; 0.902418     
   6.99739252035E+06; -0.0336084    ; 0.902634     
   7.03006135241E+06; -0.0271082    ; 0.90227      
   7.06288270594E+06; -0.0205495    ; 0.90195      
   7.09585729302E+06; -0.0141681    ; 0.902259     
   7.12898582905E+06; -0.00822654   ; 0.902001     
   7.16226903277E+06; -0.0014484    ; 0.901618     
   7.19570762629E+06;  0.00474101   ; 0.901244     
   7.22930233508E+06;  0.0110585    ; 0.900484     
   7.26305388799E+06;  0.0177281    ; 0.899706     
   7.29696301729E+06;  0.0242781    ; 0.89918      
   7.33103045865E+06;  0.0315828    ; 0.89881      
   7.36525695118E+06;  0.0381467    ; 0.898412     
   7.39964323746E+06;  0.0444438    ; 0.89761      
   7.43419006352E+06;  0.0517109    ; 0.896503     
   7.46889817886E+06;  0.0583482    ; 0.895798     
   7.50376833650E+06;  0.0652049    ; 0.895506     
   7.53880129297E+06;  0.0714771    ; 0.893872     
   7.57399780834E+06;  0.0793158    ; 0.892913     
   7.60935864621E+06;  0.0857042    ; 0.892744     
   7.64488457376E+06;  0.0924802    ; 0.891019     
   7.68057636174E+06;  0.0992059    ; 0.890618     
   7.71643478451E+06;  0.106013     ; 0.888674     
   7.75246062004E+06;  0.112892     ; 0.887783     
   7.78865464993E+06;  0.119853     ; 0.886495     
   7.82501765943E+06;  0.126254     ; 0.885106     
   7.86155043747E+06;  0.132919     ; 0.884198     
   7.89825377664E+06;  0.139884     ; 0.882147     
   7.93512847324E+06;  0.145467     ; 0.881163     
   7.97217532729E+06;  0.153041     ; 0.87937      
   8.00939514255E+06;  0.159734     ; 0.877502     
   8.04678872653E+06;  0.16603      ; 0.876264     
   8.08435689049E+06;  0.173136     ; 0.874711     
   8.12210044951E+06;  0.180479     ; 0.872608     
   8.16002022245E+06;  0.187548     ; 0.870585     
   8.19811703201E+06;  0.194752     ; 0.868991     
   8.23639170472E+06;  0.201944     ; 0.866975     
   8.27484507097E+06;  0.20943      ; 0.864599     
   8.31347796503E+06;  0.216592     ; 0.862496     
   8.35229122506E+06;  0.223858     ; 0.8605       
   8.39128569315E+06;  0.231269     ; 0.858138     
   8.43046221530E+06;  0.238437     ; 0.855497     
   8.46982164147E+06;  0.246069     ; 0.853425     
   8.50936482559E+06;  0.253029     ; 0.850797     
   8.54909262557E+06;  0.260579     ; 0.848133     
   8.58900590333E+06;  0.267201     ; 0.845465     
   8.62910552481E+06;  0.274637     ; 0.84249      
   8.66939236000E+06;  0.281692     ; 0.839846     
   8.70986728294E+06;  0.288564     ; 0.837144     
   8.75053117177E+06;  0.29569      ; 0.833553     
   8.79138490870E+06;  0.303287     ; 0.830737     
   8.83242938010E+06;  0.310283     ; 0.828031     
   8.87366547644E+06;  0.317243     ; 0.82442      
   8.91509409236E+06;  0.324914     ; 0.821621     
   8.95671612669E+06;  0.331478     ; 0.81782      
   8.99853248244E+06;  0.339126     ; 0.814205     
   9.04054406684E+06;  0.345861     ; 0.811219     
   9.08275179136E+06;  0.35309      ; 0.8078       
   9.12515657172E+06;  0.360007     ; 0.803835     
   9.16775932792E+06;  0.36743      ; 0.800072     
   9.21056098424E+06;  0.374421     ; 0.796039     
   9.25356246931E+06;  0.381484     ; 0.792312     
   9.29676471606E+06;  0.388436     ; 0.788202     
   9.34016866179E+06;  0.395651     ; 0.784633     
   9.38377524818E+06;  0.402707     ; 0.780337     
   9.42758542129E+06;  0.41003      ; 0.776111     
   9.47160013162E+06;  0.417333     ; 0.771957     
   9.51582033409E+06;  0.424492     ; 0.767738     
   9.56024698809E+06;  0.431476     ; 0.762997     
   9.60488105748E+06;  0.438662     ; 0.758078     
   9.64972351063E+06;  0.446028     ; 0.753397     
   9.69477532041E+06;  0.453378     ; 0.748477     
   9.74003746425E+06;  0.460993     ; 0.743538     
   9.78551092415E+06;  0.468074     ; 0.73868      
   9.83119668668E+06;  0.474871     ; 0.733687     
   9.87709574301E+06;  0.482203     ; 0.728335     
   9.92320908897E+06;  0.489297     ; 0.723359     
   9.96953772500E+06;  0.496265     ; 0.71794      
   1.00160826562E+07;  0.503633     ; 0.712718     
   1.00628448925E+07;  0.509961     ; 0.706787     
   1.01098254483E+07;  0.517296     ; 0.70094      
   1.01570253429E+07;  0.524108     ; 0.695709     
   1.02044456004E+07;  0.53033      ; 0.690983     
   1.02520872496E+07;  0.537016     ; 0.684336     
   1.02999513241E+07;  0.543679     ; 0.678687     
   1.03480388622E+07;  0.550568     ; 0.671776     
   1.03963509075E+07;  0.557059     ; 0.666507     
   1.04448885078E+07;  0.563496     ; 0.659845     
   1.04936527164E+07;  0.570472     ; 0.653792     
   1.05426445912E+07;  0.577295     ; 0.647263     
   1.05918651951E+07;  0.583481     ; 0.640926     
   1.06413155960E+07;  0.590728     ; 0.634147     
   1.06909968667E+07;  0.596892     ; 0.626704     
   1.07409100851E+07;  0.603099     ; 0.62006      
   1.07910563342E+07;  0.609731     ; 0.613529     
   1.08414367017E+07;  0.615846     ; 0.605983     
   1.08920522808E+07;  0.622712     ; 0.598846     
   1.09429041697E+07;  0.628994     ; 0.591468     
   1.09939934715E+07;  0.634727     ; 0.584098     
   1.10453212948E+07;  0.640572     ; 0.577185     
   1.10968887530E+07;  0.647132     ; 0.569966     
   1.11486969650E+07;  0.652812     ; 0.561993     
   1.12007470548E+07;  0.658975     ; 0.55443      
   1.12530401516E+07;  0.664573     ; 0.546128     
   1.13055773899E+07;  0.670718     ; 0.53847      
   1.13583599097E+07;  0.676439     ; 0.529879     
   1.14113888560E+07;  0.682212     ; 0.522278     
   1.14646653794E+07;  0.688016     ; 0.51414      
   1.15181906357E+07;  0.693124     ; 0.505274     
   1.15719657861E+07;  0.698721     ; 0.497021     
   1.16259919974E+07;  0.703806     ; 0.488255     
   1.16802704417E+07;  0.709486     ; 0.479852     
   1.17348022966E+07;  0.714267     ; 0.470945     
   1.17895887452E+07;  0.719688     ; 0.462485     
   1.18446309761E+07;  0.724821     ; 0.452987     
   1.18999301835E+07;  0.729998     ; 0.444268     
   1.19554875671E+07;  0.735009     ; 0.434905     
   1.20113043323E+07;  0.739711     ; 0.426129     
   1.20673816901E+07;  0.744396     ; 0.416192     
   1.21237208571E+07;  0.749165     ; 0.407395     
   1.21803230557E+07;  0.753366     ; 0.397436     
   1.22371895137E+07;  0.757625     ; 0.387943     
   1.22943214651E+07;  0.762214     ; 0.378266     
   1.23517201492E+07;  0.766546     ; 0.369151     
   1.24093868115E+07;  0.770877     ; 0.358674     
   1.24673227030E+07;  0.774723     ; 0.349343     
   1.25255290806E+07;  0.778357     ; 0.338786     
   1.25840072073E+07;  0.782463     ; 0.328639     
   1.26427583516E+07;  0.786177     ; 0.318387     
   1.27017837883E+07;  0.789751     ; 0.307908     
   1.27610847980E+07;  0.793317     ; 0.296954     
   1.28206626672E+07;  0.796665     ; 0.286097     
   1.28805186885E+07;  0.800004     ; 0.275453     
   1.29406541604E+07;  0.803377     ; 0.264555     
   1.30010703878E+07;  0.806408     ; 0.253823     
   1.30617686813E+07;  0.809146     ; 0.242575     
   1.31227503579E+07;  0.81188      ; 0.23203      
   1.31840167405E+07;  0.814359     ; 0.220609     
   1.32455691585E+07;  0.816091     ; 0.209341     
   1.33074089471E+07;  0.818813     ; 0.198283     
   1.33695374481E+07;  0.820641     ; 0.187084     
   1.34319560093E+07;  0.822397     ; 0.176086     
   1.34946659850E+07;  0.82343      ; 0.16525      
   1.35576687358E+07;  0.824976     ; 0.154667     
   1.36209656284E+07;  0.82638      ; 0.144125     
   1.36845580362E+07;  0.827961     ; 0.132742     
   1.37484473388E+07;  0.82895      ; 0.122316     
   1.38126349224E+07;  0.829528     ; 0.112138     
   1.38771221795E+07;  0.830807     ; 0.101212     
   1.39419105092E+07;  0.832243     ; 0.0873356    
   1.40070013172E+07;  0.833076     ; 0.0739814    
   1.40723960157E+07;  0.833986     ; 0.0610997    
   1.41380960233E+07;  0.834469     ; 0.0471063    
   1.42041027656E+07;  0.83482      ; 0.0326782    
   1.42704176745E+07;  0.834961     ; 0.0195761    
   1.43370421889E+07;  0.834332     ; 0.00710883   
   1.44039777541E+07;  0.833967     ;-0.00362392   
   1.44712258224E+07;  0.833372     ;-0.0151112    
   1.45387878528E+07;  0.832365     ;-0.0265516    
   1.46066653111E+07;  0.831606     ;-0.0386868    
   1.46748596698E+07;  0.83035      ;-0.0504865    
   1.47433724086E+07;  0.828874     ;-0.0619868    
   1.48122050139E+07;  0.827437     ;-0.074423     
   1.48813589790E+07;  0.825637     ;-0.0871094    
   1.49508358042E+07;  0.823467     ;-0.0996095    
   1.50206369970E+07;  0.821621     ;-0.112531     
   1.50907640716E+07;  0.81951      ;-0.125301     
   1.51612185496E+07;  0.81723      ;-0.137582     
   1.52320019594E+07;  0.81409      ;-0.149879     
   1.53031158368E+07;  0.811332     ;-0.162672     
   1.53745617247E+07;  0.808302     ;-0.17538      
   1.54463411730E+07;  0.805205     ;-0.187566     
   1.55184557392E+07;  0.801406     ;-0.200503     
   1.55909069877E+07;  0.797769     ;-0.213199     
   1.56636964904E+07;  0.79417      ;-0.226051     
   1.57368258266E+07;  0.790141     ;-0.238207     
   1.58102965828E+07;  0.785371     ;-0.250709     
   1.58841103531E+07;  0.780698     ;-0.264182     
   1.59582687388E+07;  0.776328     ;-0.276408     
   1.60327733489E+07;  0.771196     ;-0.288859     
   1.61076257998E+07;  0.765381     ;-0.301247     
   1.61828277154E+07;  0.760546     ;-0.313668     
   1.62583807274E+07;  0.754501     ;-0.325948     
   1.63342864749E+07;  0.748466     ;-0.338251     
   1.64105466046E+07;  0.742784     ;-0.350281     
   1.64871627712E+07;  0.736077     ;-0.362108     
   1.65641366369E+07;  0.730053     ;-0.374003     
   1.66414698715E+07;  0.723008     ;-0.385923     
   1.67191641531E+07;  0.716168     ;-0.39747      
   1.67972211671E+07;  0.708766     ;-0.409737     
   1.68756426070E+07;  0.701514     ;-0.420863     
   1.69544301743E+07;  0.69372      ;-0.432458     
   1.70335855784E+07;  0.68586      ;-0.443913     
   1.71131105364E+07;  0.677802     ;-0.455376     
   1.71930067738E+07;  0.669827     ;-0.466579     
   1.72732760240E+07;  0.661498     ;-0.478448     
   1.73539200285E+07;  0.652556     ;-0.489726     
   1.74349405368E+07;  0.643573     ;-0.500193     
   1.75163393068E+07;  0.635042     ;-0.51113      
   1.75981181045E+07;  0.625163     ;-0.521726     
   1.76802787040E+07;  0.615969     ;-0.532012     
   1.77628228880E+07;  0.606422     ;-0.541838     
   1.78457524473E+07;  0.59626      ;-0.552576     
   1.79290691811E+07;  0.586833     ;-0.562826     
   1.80127748969E+07;  0.575825     ;-0.572932     
   1.80968714109E+07;  0.56588      ;-0.583571     
   1.81813605476E+07;  0.554985     ;-0.593895     
   1.82662441400E+07;  0.543058     ;-0.604748     
   1.83515240296E+07;  0.531075     ;-0.615993     
   1.84372020668E+07;  0.518172     ;-0.626337     
   1.85232801104E+07;  0.505642     ;-0.637014     
   1.86097600278E+07;  0.492321     ;-0.646844     
   1.86966436952E+07;  0.478935     ;-0.656101     
   1.87839329978E+07;  0.466374     ;-0.66466      
   1.88716298293E+07;  0.453566     ;-0.673047     
   1.89597360923E+07;  0.441247     ;-0.681356     
   1.90482536983E+07;  0.428673     ;-0.688346     
   1.91371845678E+07;  0.416009     ;-0.695398     
   1.92265306302E+07;  0.402897     ;-0.703764     
   1.93162938239E+07;  0.389245     ;-0.7106       
   1.94064760964E+07;  0.375932     ;-0.717924     
   1.94970794042E+07;  0.362161     ;-0.72558      
   1.95881057130E+07;  0.347129     ;-0.732088     
   1.96795569978E+07;  0.333447     ;-0.73759      
   1.97714352425E+07;  0.319005     ;-0.74441      
   1.98637424406E+07;  0.304791     ;-0.749568     
   1.99564805947E+07;  0.289974     ;-0.755574     
   2.00496517169E+07;  0.275941     ;-0.760327     
   2.01432578284E+07;  0.260738     ;-0.764914     
   2.02373009602E+07;  0.246101     ;-0.770006     
   2.03317831526E+07;  0.231395     ;-0.773811     
   2.04267064554E+07;  0.21586      ;-0.778548     
   2.05220729281E+07;  0.199766     ;-0.782888     
   2.06178846397E+07;  0.183411     ;-0.786929     
   2.07141436689E+07;  0.167138     ;-0.791004     
   2.08108521040E+07;  0.14954      ;-0.794914     
   2.09080120433E+07;  0.134698     ;-0.797118     
   2.10056255947E+07;  0.11722      ;-0.800564     
   2.11036948759E+07;  0.0998431    ;-0.80341      
   2.12022220146E+07;  0.0840219    ;-0.80484      
   2.13012091485E+07;  0.0686886    ;-0.806262     
   2.14006584251E+07;  0.0524308    ;-0.807717     
   2.15005720021E+07;  0.0372022    ;-0.808332     
   2.16009520471E+07;  0.021109     ;-0.80871      
   2.17018007379E+07;  0.00481501   ;-0.808751     
   2.18031202625E+07; -0.0118639    ;-0.808939     
   2.19049128191E+07; -0.0284555    ;-0.808568     
   2.20071806162E+07; -0.0459247    ;-0.808253     
   2.21099258724E+07; -0.0628955    ;-0.807201     
   2.22131508170E+07; -0.0803137    ;-0.805697     
   2.23168576894E+07; -0.0974024    ;-0.804053     
   2.24210487397E+07; -0.114533     ;-0.802256     
   2.25257262283E+07; -0.13059      ;-0.799873     
   2.26308924263E+07; -0.147187     ;-0.796824     
   2.27365496153E+07; -0.163132     ;-0.793751     
   2.28427000876E+07; -0.179798     ;-0.790144     
   2.29493461463E+07; -0.196217     ;-0.786444     
   2.30564901050E+07; -0.213191     ;-0.781804     
   2.31641342883E+07; -0.229526     ;-0.777124     
   2.32722810316E+07; -0.245977     ;-0.77208      
   2.33809326812E+07; -0.263326     ;-0.766673     
   2.34900915945E+07; -0.279838     ;-0.761229     
   2.35997601396E+07; -0.297023     ;-0.755561     
   2.37099406959E+07; -0.313333     ;-0.749003     
   2.38206356539E+07; -0.329617     ;-0.741887     
   2.39318474150E+07; -0.345903     ;-0.735182     
   2.40435783922E+07; -0.362194     ;-0.727621     
   2.41558310095E+07; -0.378415     ;-0.719788     
   2.42686077023E+07; -0.394246     ;-0.711525     
   2.43819109173E+07; -0.410114     ;-0.703272     
   2.44957431128E+07; -0.425389     ;-0.694364     
   2.46101067583E+07; -0.44075      ;-0.684907     
   2.47250043351E+07; -0.455909     ;-0.675495     
   2.48404383360E+07; -0.47101      ;-0.666071     
   2.49564112653E+07; -0.485393     ;-0.655573     
   2.50729256392E+07; -0.500474     ;-0.645077     
   2.51899839856E+07; -0.514804     ;-0.634382     
   2.53075888439E+07; -0.529554     ;-0.623053     
   2.54257427659E+07; -0.543335     ;-0.611704     
   2.55444483149E+07; -0.55675      ;-0.599994     
   2.56637080662E+07; -0.570345     ;-0.587613     
   2.57835246073E+07; -0.583699     ;-0.574958     
   2.59039005378E+07; -0.596556     ;-0.562444     
   2.60248384692E+07; -0.609339     ;-0.549637     
   2.61463410253E+07; -0.62229      ;-0.535319     
   2.62684108422E+07; -0.634351     ;-0.521446     
   2.63910505683E+07; -0.646819     ;-0.507701     
   2.65142628644E+07; -0.658293     ;-0.493336     
   2.66380504035E+07; -0.670104     ;-0.478787     
   2.67624158715E+07; -0.680659     ;-0.464201     
   2.68873619663E+07; -0.691433     ;-0.448773     
   2.70128913989E+07; -0.701575     ;-0.433364     
   2.71390068926E+07; -0.711553     ;-0.417772     
   2.72657111837E+07; -0.721168     ;-0.402723     
   2.73930070210E+07; -0.730465     ;-0.386814     
   2.75208971662E+07; -0.740377     ;-0.37034      
   2.76493843942E+07; -0.748802     ;-0.354343     
   2.77784714923E+07; -0.756948     ;-0.33695      
   2.79081612614E+07; -0.765822     ;-0.319469     
   2.80384565151E+07; -0.773376     ;-0.301943     
   2.81693600801E+07; -0.781246     ;-0.284111     
   2.83008747966E+07; -0.788106     ;-0.266582     
   2.84330035179E+07; -0.793848     ;-0.249396     
   2.85657491105E+07; -0.799789     ;-0.231754     
   2.86991144545E+07; -0.80572      ;-0.214133     
   2.88331024432E+07; -0.810839     ;-0.196082     
   2.89677159837E+07; -0.815384     ;-0.178051     
   2.91029579965E+07; -0.820656     ;-0.15896      
   2.92388314157E+07; -0.825038     ;-0.139426     
   2.93753391892E+07; -0.82918      ;-0.120218     
   2.95124842786E+07; -0.832378     ;-0.10048      
   2.96502696593E+07; -0.835487     ;-0.0801624    
   2.97886983207E+07; -0.838509     ;-0.0602977    
   2.99277732661E+07; -0.839737     ;-0.0411266    
   3.00674975128E+07; -0.841218     ;-0.0223268    
   3.02078740922E+07; -0.842466     ;-0.00335264   
   3.03489060499E+07; -0.843679     ; 0.0158047    
   3.04905964456E+07; -0.843809     ; 0.0353302    
   3.06329483533E+07; -0.843436     ; 0.054583     
   3.07759648616E+07; -0.843254     ; 0.0734241    
   3.09196490732E+07; -0.841818     ; 0.0926496    
   3.10640041054E+07; -0.840126     ; 0.112324     
   3.12090330902E+07; -0.83888      ; 0.13172      
   3.13547391740E+07; -0.836588     ; 0.151264     
   3.15011255179E+07; -0.833785     ; 0.171048     
   3.16481952980E+07; -0.830377     ; 0.190751     
   3.17959517050E+07; -0.826533     ; 0.209957     
   3.19443979446E+07; -0.821798     ; 0.230063     
   3.20935372374E+07; -0.81687      ; 0.24877      
   3.22433728190E+07; -0.811788     ; 0.268116     
   3.23939079403E+07; -0.806656     ; 0.286787     
   3.25451458671E+07; -0.800646     ; 0.30537      
   3.26970898808E+07; -0.794581     ; 0.323582     
   3.28497432778E+07; -0.788153     ; 0.34192      
   3.30031093699E+07; -0.78079      ; 0.359927     
   3.31571914847E+07; -0.773069     ; 0.378709     
   3.33119929650E+07; -0.765331     ; 0.396418     
   3.34675171693E+07; -0.756971     ; 0.413701     
   3.36237674717E+07; -0.747875     ; 0.43191      
   3.37807472624E+07; -0.738464     ; 0.449729     
   3.39384599469E+07; -0.728407     ; 0.467835     
   3.40969089470E+07; -0.718233     ; 0.484503     
   3.42560977004E+07; -0.706887     ; 0.502532     
   3.44160296607E+07; -0.696051     ; 0.520028     
   3.45767082978E+07; -0.683931     ; 0.537271     
   3.47381370976E+07; -0.671837     ; 0.553573     
   3.49003195625E+07; -0.659743     ; 0.570043     
   3.50632592111E+07; -0.646782     ; 0.586499     
   3.52269595786E+07; -0.63337      ; 0.60189      
   3.53914242164E+07; -0.619991     ; 0.617436     
   3.55566566927E+07; -0.605567     ; 0.631643     
   3.57226605924E+07; -0.591668     ; 0.646604     
   3.58894395170E+07; -0.57763      ; 0.660696     
   3.60569970849E+07; -0.56234      ; 0.674591     
   3.62253369313E+07; -0.547142     ; 0.689321     
   3.63944627086E+07; -0.531244     ; 0.702211     
   3.65643780859E+07; -0.515577     ; 0.715961     
   3.67350867496E+07; -0.498934     ; 0.728157     
   3.69065924035E+07; -0.483024     ; 0.740277     
   3.70788987684E+07; -0.46497      ; 0.752297     
   3.72520095827E+07; -0.447768     ; 0.764332     
   3.74259286020E+07; -0.430593     ; 0.775008     
   3.76006595997E+07; -0.412703     ; 0.786368     
   3.77762063666E+07; -0.393964     ; 0.796734     
   3.79525727113E+07; -0.375453     ; 0.806059     
   3.81297624603E+07; -0.356998     ; 0.816419     
   3.83077794577E+07; -0.337344     ; 0.825423     
   3.84866275658E+07; -0.318526     ; 0.834524     
   3.86663106647E+07; -0.298628     ; 0.842068     
   3.88468326529E+07; -0.278721     ; 0.850487     
   3.90281974467E+07; -0.25846      ; 0.857856     
   3.92104089811E+07; -0.238122     ; 0.864782     
   3.93934712093E+07; -0.217674     ; 0.871535     
   3.95773881028E+07; -0.197281     ; 0.877411     
   3.97621636519E+07; -0.175265     ; 0.882952     
   3.99478018654E+07; -0.154471     ; 0.887617     
   4.01343067708E+07; -0.132828     ; 0.891777     
   4.03216824145E+07; -0.111376     ; 0.896254     
   4.05099328617E+07; -0.0894812    ; 0.899564     
   4.06990621966E+07; -0.0673001    ; 0.902416     
   4.08890745225E+07; -0.0456152    ; 0.904529     
   4.10799739618E+07; -0.0232739    ; 0.906603     
   4.12717646562E+07; -0.00065729   ; 0.907941     
   4.14644507667E+07;  0.0218516    ; 0.908223     
   4.16580364737E+07;  0.0442021    ; 0.90882      
   4.18525259773E+07;  0.0665945    ; 0.908172     
   4.20479234969E+07;  0.0875102    ; 0.907659     
   4.22442332719E+07;  0.112732     ; 0.905986     
   4.24414595613E+07;  0.135745     ; 0.902848     
   4.26396066441E+07;  0.159326     ; 0.900869     
   4.28386788191E+07;  0.182449     ; 0.896923     
   4.30386804054E+07;  0.205598     ; 0.892332     
   4.32396157421E+07;  0.22938      ; 0.887638     
   4.34414891886E+07;  0.252991     ; 0.881889     
   4.36443051248E+07;  0.276006     ; 0.876034     
   4.38480679508E+07;  0.299173     ; 0.868461     
   4.40527820874E+07;  0.322931     ; 0.860511     
   4.42584519759E+07;  0.346486     ; 0.852181     
   4.44650820786E+07;  0.36985      ; 0.842456     
   4.46726768783E+07;  0.393497     ; 0.832329     
   4.48812408790E+07;  0.417069     ; 0.821397     
   4.50907786056E+07;  0.440209     ; 0.809691     
   4.53012946042E+07;  0.463136     ; 0.796365     
   4.55127934419E+07;  0.486579     ; 0.782195     
   4.57252797075E+07;  0.509125     ; 0.767348     
   4.59387580110E+07;  0.531644     ; 0.751025     
   4.61532329838E+07;  0.553699     ; 0.733998     
   4.63687092791E+07;  0.576058     ; 0.715629     
   4.65851915719E+07;  0.597869     ; 0.695722     
   4.68026845588E+07;  0.619443     ; 0.674992     
   4.70211929585E+07;  0.640092     ; 0.652006     
   4.72407215117E+07;  0.659678     ; 0.627683     
   4.74612749811E+07;  0.679086     ; 0.601922     
   4.76828581519E+07;  0.697342     ; 0.573998     
   4.79054758313E+07;  0.713516     ; 0.544345     
   4.81291328493E+07;  0.72962      ; 0.512924     
   4.83538340582E+07;  0.742554     ; 0.479161     
   4.85795843329E+07;  0.753632     ; 0.443526     
   4.88063885715E+07;  0.761893     ; 0.405503     
   4.90342516943E+07;  0.766918     ; 0.365609     
   4.92631786452E+07;  0.767486     ; 0.324091     
   4.94931743908E+07;  0.762829     ; 0.281188     
   4.97242439210E+07;  0.752105     ; 0.237229     
   4.99563922490E+07;  0.735143     ; 0.193877     
   5.01896244114E+07;  0.710221     ; 0.153434     
   5.04239454683E+07;  0.677628     ; 0.116464     
   5.06593605035E+07;  0.638051     ; 0.0863616    
   5.08958746244E+07;  0.592292     ; 0.0645771    
   5.11334929623E+07;  0.543166     ; 0.0544599    
   5.13722206726E+07;  0.493492     ; 0.0566061    
   5.16120629345E+07;  0.44781      ; 0.07098      
   5.18530249516E+07;  0.409102     ; 0.0964018    
   5.20951119517E+07;  0.38025      ; 0.129987     
   5.23383291871E+07;  0.362846     ; 0.168082     
   5.25826819344E+07;  0.357021     ; 0.207351     
   5.28281754951E+07;  0.361466     ; 0.24428      
   5.30748151953E+07;  0.374893     ; 0.277007     
   5.33226063859E+07;  0.394209     ; 0.304558     
   5.35715544431E+07;  0.418289     ; 0.325896     
   5.38216647678E+07;  0.445696     ; 0.341519     
   5.40729427863E+07;  0.474004     ; 0.351527     
   5.43253939503E+07;  0.503776     ; 0.35692      
   5.45790237369E+07;  0.532629     ; 0.35752      
   5.48338376487E+07;  0.560672     ; 0.353873     
   5.50898412140E+07;  0.587647     ; 0.347064     
   5.53470399871E+07;  0.61325      ; 0.337866     
   5.56054395479E+07;  0.637438     ; 0.325828     
   5.58650455027E+07;  0.660041     ; 0.311712     
   5.61258634837E+07;  0.681591     ; 0.29617      
   5.63878991496E+07;  0.701016     ; 0.278964     
   5.66511581853E+07;  0.71982      ; 0.260271     
   5.69156463025E+07;  0.736963     ; 0.240907     
   5.71813692393E+07;  0.752315     ; 0.220869     
   5.74483327608E+07;  0.766812     ; 0.199407     
   5.77165426589E+07;  0.779803     ; 0.177897     
   5.79860047526E+07;  0.791673     ; 0.155258     
   5.82567248881E+07;  0.802013     ; 0.132323     
   5.85287089388E+07;  0.811226     ; 0.109547     
   5.88019628055E+07;  0.819612     ; 0.085701     
   5.90764924166E+07;  0.826728     ; 0.0619121    
   5.93523037283E+07;  0.832601     ; 0.038032     
   5.96294027244E+07;  0.838095     ; 0.0137105    
   5.99077954168E+07;  0.842275     ;-0.0108294    
   6.01874878453E+07;  0.845277     ;-0.0352762    
   6.04684860782E+07;  0.847323     ;-0.0601216    
   6.07507962117E+07;  0.848576     ;-0.0853847    
   6.10344243707E+07;  0.849315     ;-0.11016      
   6.13193767089E+07;  0.848469     ;-0.135144     
   6.16056594083E+07;  0.847288     ;-0.159391     
   6.18932786801E+07;  0.84474      ;-0.184442     
   6.21822407643E+07;  0.841722     ;-0.209331     
   6.24725519302E+07;  0.837674     ;-0.234043     
   6.27642184762E+07;  0.833098     ;-0.258707     
   6.30572467302E+07;  0.827479     ;-0.282636     
   6.33516430496E+07;  0.820957     ;-0.307381     
   6.36474138216E+07;  0.812681     ;-0.330847     
   6.39445654630E+07;  0.805047     ;-0.3547       
   6.42431044208E+07;  0.796348     ;-0.378741     
   6.45430371719E+07;  0.786914     ;-0.402749     
   6.48443702236E+07;  0.776737     ;-0.425487     
   6.51471101134E+07;  0.765257     ;-0.448674     
   6.54512634096E+07;  0.753535     ;-0.470969     
   6.57568367108E+07;  0.740374     ;-0.492772     
   6.60638366467E+07;  0.726851     ;-0.514636     
   6.63722698778E+07;  0.713363     ;-0.536612     
   6.66821430959E+07;  0.698571     ;-0.557312     
   6.69934630236E+07;  0.682381     ;-0.578592     
   6.73062364155E+07;  0.666006     ;-0.598822     
   6.76204700572E+07;  0.649747     ;-0.619182     
   6.79361707662E+07;  0.631695     ;-0.637933     
   6.82533453919E+07;  0.613342     ;-0.656876     
   6.85720008156E+07;  0.59455      ;-0.675558     
   6.88921439506E+07;  0.574922     ;-0.693266     
   6.92137817427E+07;  0.554652     ;-0.7108       
   6.95369211701E+07;  0.533655     ;-0.728265     
   6.98615692434E+07;  0.512126     ;-0.744322     
   7.01877330060E+07;  0.490677     ;-0.7594       
   7.05154195343E+07;  0.467296     ;-0.773664     
   7.08446359376E+07;  0.44434      ;-0.788846     
   7.11753893586E+07;  0.420554     ;-0.802341     
   7.15076869730E+07;  0.396572     ;-0.814379     
   7.18415359903E+07;  0.372274     ;-0.827005     
   7.21769436536E+07;  0.346747     ;-0.838689     
   7.25139172397E+07;  0.321201     ;-0.848788     
   7.28524640594E+07;  0.295151     ;-0.858744     
   7.31925914578E+07;  0.269191     ;-0.867911     
   7.35343068141E+07;  0.241993     ;-0.876021     
   7.38776175420E+07;  0.214972     ;-0.883493     
   7.42225310900E+07;  0.186511     ;-0.890214     
   7.45690549410E+07;  0.158868     ;-0.895297     
   7.49171966131E+07;  0.13089      ;-0.900422     
   7.52669636596E+07;  0.102279     ;-0.903998     
   7.56183636687E+07;  0.0738722    ;-0.907073     
   7.59714042643E+07;  0.0448519    ;-0.909142     
   7.63260931059E+07;  0.0152304    ;-0.910237     
   7.66824378886E+07; -0.0138732    ;-0.91049      
   7.70404463437E+07; -0.0433768    ;-0.909352     
   7.74001262381E+07; -0.0719525    ;-0.907667     
   7.77614853756E+07; -0.101587     ;-0.904696     
   7.81245315959E+07; -0.131471     ;-0.900626     
   7.84892727755E+07; -0.160579     ;-0.896307     
   7.88557168278E+07; -0.18968      ;-0.890556     
   7.92238717030E+07; -0.219593     ;-0.882927     
   7.95937453884E+07; -0.248524     ;-0.875334     
   7.99653459087E+07; -0.277502     ;-0.866147     
   8.03386813259E+07; -0.306881     ;-0.856392     
   8.07137597398E+07; -0.335287     ;-0.845438     
   8.10905892880E+07; -0.363449     ;-0.833483     
   8.14691781460E+07; -0.391563     ;-0.820762     
   8.18495345275E+07; -0.419443     ;-0.805793     
   8.22316666845E+07; -0.446293     ;-0.7912       
   8.26155829078E+07; -0.473398     ;-0.774814     
   8.30012915265E+07; -0.499885     ;-0.757577     
   8.33888009088E+07; -0.525333     ;-0.739366     
   8.37781194620E+07; -0.55071      ;-0.720789     
   8.41692556327E+07; -0.575256     ;-0.700295     
   8.45622179067E+07; -0.599621     ;-0.679314     
   8.49570148096E+07; -0.623302     ;-0.657094     
   8.53536549067E+07; -0.645799     ;-0.634115     
   8.57521468035E+07; -0.66758      ;-0.611102     
   8.61524991454E+07; -0.689081     ;-0.586023     
   8.65547206183E+07; -0.709375     ;-0.560089     
   8.69588199487E+07; -0.728375     ;-0.533314     
   8.73648059037E+07; -0.747165     ;-0.507123     
   8.77726872915E+07; -0.765227     ;-0.477949     
   8.81824729612E+07; -0.781976     ;-0.449658     
   8.85941718035E+07; -0.797041     ;-0.419866     
   8.90077927504E+07; -0.811648     ;-0.38973      
   8.94233447757E+07; -0.825189     ;-0.359026     
   8.98408368949E+07; -0.837019     ;-0.327336     
   9.02602781660E+07; -0.8483       ;-0.295181     
   9.06816776888E+07; -0.858017     ;-0.262217     
   9.11050446059E+07; -0.867435     ;-0.229282     
   9.15303881026E+07; -0.874322     ;-0.195545     
   9.19577174068E+07; -0.880318     ;-0.162034     
   9.23870417898E+07; -0.885302     ;-0.127134     
   9.28183705661E+07; -0.888636     ;-0.0927221    
   9.32517130935E+07; -0.890658     ;-0.0575308    
   9.36870787737E+07; -0.891236     ;-0.0228439    
   9.41244770522E+07; -0.890744     ; 0.0125599    
   9.45639174187E+07; -0.888818     ; 0.0476869    
   9.50054094070E+07; -0.885093     ; 0.0834096    
   9.54489625957E+07; -0.879612     ; 0.118481     
   9.58945866078E+07; -0.872804     ; 0.154029     
   9.63422911115E+07; -0.865076     ; 0.189219     
   9.67920858199E+07; -0.854737     ; 0.224198     
   9.72439804917E+07; -0.843492     ; 0.258094     
   9.76979849309E+07; -0.830985     ; 0.292967     
   9.81541089876E+07; -0.816541     ; 0.326241     
   9.86123625575E+07; -0.800496     ; 0.359882     
   9.90727555827E+07; -0.78436      ; 0.392223     
   9.95352980519E+07; -0.765803     ; 0.424329     
   1.00000000000E+08; -0.744469     ; 0.455981     
