
  ZVR, 2.05

  stimulus-start        ; stimulus-stop       ; stimulus-unit       ; nof-points; parameter-type; impedance-ohm
  9.00000000000E+03     ; 1.00000000000E+08   ; Hz                  ; 2001      ; S11           ; 50        

  conversion            ; time-domain         ; data-format         ; param-unit; smoothing     ; trace-math
  S                     ; none                ; RI                  ; none      ; none          ; none

  sweep-mode-type       ; notlinear-meas-mode 
  FUNDAMENTAL           ; none                


  freq              ;  reS11        ; imS11         
   9.00000000000E+03; -0.668495     ; 0.0441872    
   9.04201843582E+03; -0.668883     ; 0.0445817    
   9.08423304375E+03; -0.669139     ; 0.0452037    
   9.12664473965E+03; -0.669343     ; 0.0458517    
   9.16925444368E+03; -0.670041     ; 0.0452974    
   9.21206308028E+03; -0.669215     ; 0.0454829    
   9.25507157820E+03; -0.668671     ; 0.0456044    
   9.29828087055E+03; -0.66884      ; 0.0455213    
   9.34169189477E+03; -0.668763     ; 0.0458702    
   9.38530559270E+03; -0.66878      ; 0.0461144    
   9.42912291056E+03; -0.668689     ; 0.0461319    
   9.47314479899E+03; -0.668784     ; 0.0462086    
   9.51737221307E+03; -0.669237     ; 0.0463466    
   9.56180611235E+03; -0.66876      ; 0.0465676    
   9.60644746085E+03; -0.669392     ; 0.0468633    
   9.65129722708E+03; -0.669025     ; 0.0466781    
   9.69635638410E+03; -0.668862     ; 0.0468668    
   9.74162590948E+03; -0.668869     ; 0.0469911    
   9.78710678538E+03; -0.669174     ; 0.0471113    
   9.83279999853E+03; -0.669442     ; 0.0477163    
   9.87870654027E+03; -0.66906      ; 0.0480637    
   9.92482740658E+03; -0.669268     ; 0.0481297    
   9.97116359807E+03; -0.668992     ; 0.0480422    
   1.00177161200E+04; -0.669263     ; 0.0484374    
   1.00644859825E+04; -0.669355     ; 0.0485479    
   1.01114742001E+04; -0.669261     ; 0.0489045    
   1.01586817922E+04; -0.669132     ; 0.0489875    
   1.02061097832E+04; -0.669406     ; 0.0491735    
   1.02537592020E+04; -0.669388     ; 0.0494027    
   1.03016310823E+04; -0.669375     ; 0.0495395    
   1.03497264628E+04; -0.669422     ; 0.0497355    
   1.03980463870E+04; -0.669503     ; 0.0498419    
   1.04465919031E+04; -0.669565     ; 0.0500785    
   1.04953640643E+04; -0.669556     ; 0.050487     
   1.05443639289E+04; -0.66961      ; 0.0503948    
   1.05935925599E+04; -0.669793     ; 0.0506527    
   1.06430510254E+04; -0.669645     ; 0.0512187    
   1.06927403983E+04; -0.669774     ; 0.0516629    
   1.07426617568E+04; -0.669913     ; 0.0515599    
   1.07928161838E+04; -0.669875     ; 0.0516329    
   1.08432047676E+04; -0.669674     ; 0.0518604    
   1.08938286014E+04; -0.669499     ; 0.0518541    
   1.09446887834E+04; -0.669859     ; 0.0522783    
   1.09957864171E+04; -0.669538     ; 0.0522714    
   1.10471226110E+04; -0.669778     ; 0.0528064    
   1.10986984791E+04; -0.669912     ; 0.0528709    
   1.11505151402E+04; -0.669937     ; 0.0531467    
   1.12025737185E+04; -0.669685     ; 0.0533204    
   1.12548753435E+04; -0.670014     ; 0.0534302    
   1.13074211498E+04; -0.669999     ; 0.0537889    
   1.13602122776E+04; -0.670003     ; 0.0540003    
   1.14132498721E+04; -0.670007     ; 0.0541491    
   1.14665350840E+04; -0.669962     ; 0.0544481    
   1.15200690694E+04; -0.670091     ; 0.0546669    
   1.15738529897E+04; -0.670107     ; 0.054897     
   1.16278880118E+04; -0.670204     ; 0.0552082    
   1.16821753081E+04; -0.670164     ; 0.0554       
   1.17367160562E+04; -0.670183     ; 0.0557375    
   1.17915114396E+04; -0.670279     ; 0.0559904    
   1.18465626470E+04; -0.670322     ; 0.0563633    
   1.19018708728E+04; -0.670143     ; 0.0564706    
   1.19574373170E+04; -0.670277     ; 0.0564835    
   1.20132631851E+04; -0.670337     ; 0.0569769    
   1.20693496882E+04; -0.670469     ; 0.0571434    
   1.21256980432E+04; -0.670379     ; 0.0572839    
   1.21823094727E+04; -0.670412     ; 0.0575689    
   1.22391852047E+04; -0.670468     ; 0.0580118    
   1.22963264734E+04; -0.670387     ; 0.0582851    
   1.23537345184E+04; -0.670502     ; 0.0584108    
   1.24114105852E+04; -0.670506     ; 0.0587128    
   1.24693559251E+04; -0.670502     ; 0.0590428    
   1.25275717953E+04; -0.670587     ; 0.0593072    
   1.25860594587E+04; -0.670512     ; 0.0595435    
   1.26448201845E+04; -0.670597     ; 0.0598078    
   1.27038552473E+04; -0.670681     ; 0.0601309    
   1.27631659280E+04; -0.670601     ; 0.0604327    
   1.28227535134E+04; -0.670732     ; 0.0606712    
   1.28826192962E+04; -0.670724     ; 0.0610045    
   1.29427645754E+04; -0.670659     ; 0.0612498    
   1.30031906557E+04; -0.670819     ; 0.0615419    
   1.30638988481E+04; -0.670683     ; 0.0619046    
   1.31248904698E+04; -0.670824     ; 0.0621932    
   1.31861668440E+04; -0.670912     ; 0.0623739    
   1.32477293002E+04; -0.670901     ; 0.0627289    
   1.33095791739E+04; -0.670835     ; 0.0630627    
   1.33717178070E+04; -0.670838     ; 0.0632358    
   1.34341465477E+04; -0.670884     ; 0.0636288    
   1.34968667505E+04; -0.671419     ; 0.0638019    
   1.35598797759E+04; -0.671516     ; 0.0640322    
   1.36231869913E+04; -0.671354     ; 0.0644219    
   1.36867897700E+04; -0.671176     ; 0.0645345    
   1.37506894919E+04; -0.671216     ; 0.06478      
   1.38148875435E+04; -0.671558     ; 0.0652729    
   1.38793853174E+04; -0.671528     ; 0.06576      
   1.39441842131E+04; -0.671478     ; 0.065907     
   1.40092856364E+04; -0.671596     ; 0.0661789    
   1.40746909997E+04; -0.67169      ; 0.0665717    
   1.41404017219E+04; -0.671598     ; 0.0668744    
   1.42064192289E+04; -0.671609     ; 0.06718      
   1.42727449527E+04; -0.671597     ; 0.0675007    
   1.43393803325E+04; -0.671637     ; 0.067837     
   1.44063268138E+04; -0.67166      ; 0.0682463    
   1.44735858492E+04; -0.671754     ; 0.0684423    
   1.45411588979E+04; -0.671587     ; 0.0688496    
   1.46090474259E+04; -0.671626     ; 0.0691866    
   1.46772529061E+04; -0.671744     ; 0.0694253    
   1.47457768182E+04; -0.671642     ; 0.0699652    
   1.48146206490E+04; -0.671708     ; 0.0701763    
   1.48837858920E+04; -0.671782     ; 0.0706448    
   1.49532740478E+04; -0.67184      ; 0.0709352    
   1.50230866240E+04; -0.671893     ; 0.0713344    
   1.50932251352E+04; -0.671864     ; 0.0715866    
   1.51636911032E+04; -0.671953     ; 0.0720651    
   1.52344860567E+04; -0.671708     ; 0.0724181    
   1.53056115317E+04; -0.671696     ; 0.0727355    
   1.53770690712E+04; -0.671914     ; 0.0730839    
   1.54488602256E+04; -0.671803     ; 0.0734163    
   1.55209865525E+04; -0.671938     ; 0.0738145    
   1.55934496167E+04; -0.671944     ; 0.0741745    
   1.56662509902E+04; -0.671948     ; 0.0747095    
   1.57393922526E+04; -0.671765     ; 0.0749548    
   1.58128749908E+04; -0.671744     ; 0.0753221    
   1.58867007989E+04; -0.671795     ; 0.0757325    
   1.59608712786E+04; -0.671426     ; 0.076202     
   1.60353880393E+04; -0.671515     ; 0.0766075    
   1.61102526974E+04; -0.671574     ; 0.0770649    
   1.61854668773E+04; -0.671593     ; 0.0773545    
   1.62610322108E+04; -0.671491     ; 0.0778835    
   1.63369503372E+04; -0.671509     ; 0.0783956    
   1.64132229038E+04; -0.67143      ; 0.0785845    
   1.64898515653E+04; -0.671546     ; 0.0790713    
   1.65668379841E+04; -0.671505     ; 0.079376     
   1.66441838307E+04; -0.671407     ; 0.0798687    
   1.67218907829E+04; -0.671137     ; 0.0802683    
   1.67999605267E+04; -0.67071      ; 0.0806681    
   1.68783947560E+04; -0.67109      ; 0.0810549    
   1.69571951723E+04; -0.67149      ; 0.0813474    
   1.70363634853E+04; -0.671458     ; 0.081816     
   1.71159014126E+04; -0.671425     ; 0.0822711    
   1.71958106798E+04; -0.671404     ; 0.0826865    
   1.72760930207E+04; -0.671365     ; 0.0830214    
   1.73567501769E+04; -0.671362     ; 0.0834071    
   1.74377838984E+04; -0.671512     ; 0.0837867    
   1.75191959432E+04; -0.671373     ; 0.0842121    
   1.76009880777E+04; -0.67136      ; 0.0846985    
   1.76831620763E+04; -0.671193     ; 0.0852015    
   1.77657197220E+04; -0.671216     ; 0.0855765    
   1.78486628058E+04; -0.671204     ; 0.0859335    
   1.79319931272E+04; -0.67132      ; 0.0864551    
   1.80157124941E+04; -0.671303     ; 0.0869132    
   1.80998227229E+04; -0.671252     ; 0.0873926    
   1.81843256384E+04; -0.671151     ; 0.0877553    
   1.82692230739E+04; -0.67085      ; 0.088111     
   1.83545168714E+04; -0.67092      ; 0.0886912    
   1.84402088813E+04; -0.671107     ; 0.0891377    
   1.85263009628E+04; -0.671383     ; 0.0895489    
   1.86127949837E+04; -0.671205     ; 0.0900806    
   1.86996928205E+04; -0.671139     ; 0.0905357    
   1.87869963586E+04; -0.671178     ; 0.0910241    
   1.88747074920E+04; -0.671158     ; 0.0915266    
   1.89628281237E+04; -0.671165     ; 0.0919191    
   1.90513601656E+04; -0.671226     ; 0.0923884    
   1.91403055383E+04; -0.670998     ; 0.0928557    
   1.92296661716E+04; -0.671053     ; 0.0933853    
   1.93194440042E+04; -0.67102      ; 0.0937896    
   1.94096409840E+04; -0.671083     ; 0.0942018    
   1.95002590678E+04; -0.670999     ; 0.0947135    
   1.95913002216E+04; -0.67106      ; 0.0952353    
   1.96827664206E+04; -0.670987     ; 0.0957851    
   1.97746596492E+04; -0.670937     ; 0.0962941    
   1.98669819012E+04; -0.670826     ; 0.0967111    
   1.99597351794E+04; -0.670901     ; 0.0971499    
   2.00529214962E+04; -0.676793     ; 0.0996065    
   2.01465428734E+04; -0.676154     ; 0.0999633    
   2.02406013422E+04; -0.676254     ; 0.100532     
   2.03350989431E+04; -0.676242     ; 0.101021     
   2.04300377265E+04; -0.67609      ; 0.101614     
   2.05254197519E+04; -0.676043     ; 0.102035     
   2.06212470888E+04; -0.676136     ; 0.102483     
   2.07175218163E+04; -0.67602      ; 0.103026     
   2.08142460231E+04; -0.676013     ; 0.103588     
   2.09114218076E+04; -0.675938     ; 0.104126     
   2.10090512782E+04; -0.675992     ; 0.10467      
   2.11071365529E+04; -0.675872     ; 0.105149     
   2.12056797599E+04; -0.675936     ; 0.105672     
   2.13046830370E+04; -0.675989     ; 0.106393     
   2.14041485322E+04; -0.67599      ; 0.106899     
   2.15040784035E+04; -0.675602     ; 0.107413     
   2.16044748189E+04; -0.675614     ; 0.107984     
   2.17053399565E+04; -0.675523     ; 0.108423     
   2.18066760047E+04; -0.675424     ; 0.10901      
   2.19084851621E+04; -0.675425     ; 0.109583     
   2.20107696374E+04; -0.675374     ; 0.110162     
   2.21135316497E+04; -0.67527      ; 0.110727     
   2.22167734287E+04; -0.675066     ; 0.111255     
   2.23204972141E+04; -0.675046     ; 0.111581     
   2.24247052562E+04; -0.675064     ; 0.112525     
   2.25293998161E+04; -0.674978     ; 0.11303      
   2.26345831650E+04; -0.674927     ; 0.11339      
   2.27402575850E+04; -0.674895     ; 0.114021     
   2.28464253688E+04; -0.674858     ; 0.114648     
   2.29530888197E+04; -0.674781     ; 0.115271     
   2.30602502519E+04; -0.67463      ; 0.116011     
   2.31679119902E+04; -0.67458      ; 0.116554     
   2.32760763706E+04; -0.674553     ; 0.11711      
   2.33847457396E+04; -0.674521     ; 0.11772      
   2.34939224549E+04; -0.674488     ; 0.118226     
   2.36036088852E+04; -0.67443      ; 0.118755     
   2.37138074102E+04; -0.674217     ; 0.119476     
   2.38245204208E+04; -0.673995     ; 0.120148     
   2.39357503188E+04; -0.674248     ; 0.120795     
   2.40474995175E+04; -0.674053     ; 0.121286     
   2.41597704414E+04; -0.673648     ; 0.122008     
   2.42725655263E+04; -0.673796     ; 0.122364     
   2.43858872193E+04; -0.673706     ; 0.122933     
   2.44997379790E+04; -0.67361      ; 0.123373     
   2.46141202754E+04; -0.673499     ; 0.124205     
   2.47290365902E+04; -0.673169     ; 0.125107     
   2.48444894165E+04; -0.673262     ; 0.125725     
   2.49604812592E+04; -0.673121     ; 0.126413     
   2.50770146347E+04; -0.673082     ; 0.126812     
   2.51940920714E+04; -0.673104     ; 0.127512     
   2.53117161092E+04; -0.672834     ; 0.12819      
   2.54298893002E+04; -0.672829     ; 0.128799     
   2.55486142082E+04; -0.67271      ; 0.129351     
   2.56678934089E+04; -0.673229     ; 0.129962     
   2.57877294902E+04; -0.672442     ; 0.13075      
   2.59081250521E+04; -0.672428     ; 0.131476     
   2.60290827065E+04; -0.672302     ; 0.131967     
   2.61506050777E+04; -0.672816     ; 0.13262      
   2.62726948023E+04; -0.672625     ; 0.133205     
   2.63953545290E+04; -0.671898     ; 0.134022     
   2.65185869190E+04; -0.67253      ; 0.134628     
   2.66423946460E+04; -0.671638     ; 0.135237     
   2.67667803959E+04; -0.671468     ; 0.135933     
   2.68917468675E+04; -0.672003     ; 0.13659      
   2.70172967719E+04; -0.671328     ; 0.137225     
   2.71434328331E+04; -0.671247     ; 0.137898     
   2.72701577876E+04; -0.671097     ; 0.138543     
   2.73974743848E+04; -0.671201     ; 0.139404     
   2.75253853869E+04; -0.670974     ; 0.139922     
   2.76538935691E+04; -0.670701     ; 0.14067      
   2.77830017193E+04; -0.670518     ; 0.141402     
   2.79127126387E+04; -0.670345     ; 0.142106     
   2.80430291415E+04; -0.670336     ; 0.142689     
   2.81739540548E+04; -0.670686     ; 0.143528     
   2.83054902193E+04; -0.670075     ; 0.144259     
   2.84376404886E+04; -0.669829     ; 0.144947     
   2.85704077300E+04; -0.67035      ; 0.145576     
   2.87037948237E+04; -0.670252     ; 0.146253     
   2.88378046638E+04; -0.670048     ; 0.14706      
   2.89724401576E+04; -0.669224     ; 0.147692     
   2.91077042262E+04; -0.669835     ; 0.148383     
   2.92435998042E+04; -0.669633     ; 0.149188     
   2.93801298399E+04; -0.668814     ; 0.149975     
   2.95172972955E+04; -0.668639     ; 0.150591     
   2.96551051468E+04; -0.668722     ; 0.15146      
   2.97935563837E+04; -0.669103     ; 0.152009     
   2.99326540101E+04; -0.668779     ; 0.152886     
   3.00724010436E+04; -0.668812     ; 0.153444     
   3.02128005161E+04; -0.667845     ; 0.154268     
   3.03538554739E+04; -0.667694     ; 0.155136     
   3.04955689770E+04; -0.667634     ; 0.155791     
   3.06379441001E+04; -0.668193     ; 0.156502     
   3.07809839321E+04; -0.667915     ; 0.157306     
   3.09246915763E+04; -0.667084     ; 0.158123     
   3.10690701505E+04; -0.667058     ; 0.158726     
   3.12141227872E+04; -0.666796     ; 0.159576     
   3.13598526333E+04; -0.667234     ; 0.160486     
   3.15062628506E+04; -0.666415     ; 0.16102      
   3.16533566154E+04; -0.666821     ; 0.16197      
   3.18011371191E+04; -0.666776     ; 0.162731     
   3.19496075679E+04; -0.666495     ; 0.163522     
   3.20987711829E+04; -0.666313     ; 0.164338     
   3.22486312004E+04; -0.666144     ; 0.164963     
   3.23991908715E+04; -0.665341     ; 0.165849     
   3.25504534629E+04; -0.665791     ; 0.166675     
   3.27024222562E+04; -0.665578     ; 0.167422     
   3.28551005485E+04; -0.665472     ; 0.168107     
   3.30084916523E+04; -0.665231     ; 0.169076     
   3.31625988954E+04; -0.664969     ; 0.169701     
   3.33174256213E+04; -0.664769     ; 0.170736     
   3.34729751891E+04; -0.664529     ; 0.171381     
   3.36292509735E+04; -0.664271     ; 0.172396     
   3.37862563651E+04; -0.66418      ; 0.173123     
   3.39439947700E+04; -0.664026     ; 0.173765     
   3.41024696107E+04; -0.663827     ; 0.174638     
   3.42616843252E+04; -0.663505     ; 0.175408     
   3.44216423679E+04; -0.663187     ; 0.176416     
   3.45823472091E+04; -0.663267     ; 0.177141     
   3.47438023354E+04; -0.662137     ; 0.178059     
   3.49060112497E+04; -0.662125     ; 0.17874      
   3.50689774712E+04; -0.662388     ; 0.179822     
   3.52327045355E+04; -0.661709     ; 0.180433     
   3.53971959949E+04; -0.661507     ; 0.181505     
   3.55624554180E+04; -0.66128      ; 0.18213      
   3.57284863903E+04; -0.661067     ; 0.183127     
   3.58952925139E+04; -0.660496     ; 0.18388      
   3.60628774078E+04; -0.661065     ; 0.184978     
   3.62312447078E+04; -0.660785     ; 0.185817     
   3.64003980667E+04; -0.660621     ; 0.186665     
   3.65703411545E+04; -0.66037      ; 0.187534     
   3.67410776581E+04; -0.660119     ; 0.188393     
   3.69126112819E+04; -0.659968     ; 0.189149     
   3.70849457472E+04; -0.659573     ; 0.190072     
   3.72580847931E+04; -0.658626     ; 0.190942     
   3.74320321758E+04; -0.65912      ; 0.191931     
   3.76067916693E+04; -0.658762     ; 0.192716     
   3.77823670651E+04; -0.658628     ; 0.193808     
   3.79587621724E+04; -0.658278     ; 0.194656     
   3.81359808182E+04; -0.658218     ; 0.195333     
   3.83140268474E+04; -0.657687     ; 0.196442     
   3.84929041228E+04; -0.657454     ; 0.197221     
   3.86726165251E+04; -0.657149     ; 0.198363     
   3.88531679535E+04; -0.657005     ; 0.199063     
   3.90345623251E+04; -0.656582     ; 0.200215     
   3.92168035753E+04; -0.656494     ; 0.20093      
   3.93998956580E+04; -0.656105     ; 0.202109     
   3.95838425455E+04; -0.655762     ; 0.202867     
   3.97686482285E+04; -0.655289     ; 0.203818     
   3.99543167167E+04; -0.655105     ; 0.204852     
   4.01408520381E+04; -0.655077     ; 0.205869     
   4.03282582398E+04; -0.654535     ; 0.206655     
   4.05165393876E+04; -0.654339     ; 0.207625     
   4.07056995665E+04; -0.653998     ; 0.208549     
   4.08957428804E+04; -0.653713     ; 0.209396     
   4.10866734523E+04; -0.653222     ; 0.210531     
   4.12784954247E+04; -0.652964     ; 0.211449     
   4.14712129592E+04; -0.652321     ; 0.212241     
   4.16648302370E+04; -0.652053     ; 0.213177     
   4.18593514587E+04; -0.651734     ; 0.21437      
   4.20547808446E+04; -0.65155      ; 0.215183     
   4.22511226346E+04; -0.651103     ; 0.216373     
   4.24483810885E+04; -0.650912     ; 0.217186     
   4.26465604859E+04; -0.650398     ; 0.218334     
   4.28456651264E+04; -0.64969      ; 0.219092     
   4.30456993298E+04; -0.649748     ; 0.220417     
   4.32466674358E+04; -0.649378     ; 0.221271     
   4.34485738047E+04; -0.648914     ; 0.222207     
   4.36514228170E+04; -0.648615     ; 0.223329     
   4.38552188734E+04; -0.648327     ; 0.224394     
   4.40599663956E+04; -0.647917     ; 0.225327     
   4.42656698256E+04; -0.647524     ; 0.226353     
   4.44723336264E+04; -0.647399     ; 0.22741      
   4.46799622815E+04; -0.647252     ; 0.228513     
   4.48885602957E+04; -0.64669      ; 0.229623     
   4.50981321946E+04; -0.646253     ; 0.230358     
   4.53086825250E+04; -0.645723     ; 0.231481     
   4.55202158548E+04; -0.645392     ; 0.232441     
   4.57327367735E+04; -0.644969     ; 0.233597     
   4.59462498919E+04; -0.64459      ; 0.234563     
   4.61607598421E+04; -0.64425      ; 0.235873     
   4.63762712782E+04; -0.64389      ; 0.236857     
   4.65927888758E+04; -0.643503     ; 0.237913     
   4.68103173324E+04; -0.643061     ; 0.238767     
   4.70288613674E+04; -0.642685     ; 0.240107     
   4.72484257222E+04; -0.642182     ; 0.241075     
   4.74690151604E+04; -0.641659     ; 0.242271     
   4.76906344678E+04; -0.641344     ; 0.243301     
   4.79132884527E+04; -0.640875     ; 0.244361     
   4.81369819455E+04; -0.640493     ; 0.245425     
   4.83617197996E+04; -0.640051     ; 0.246684     
   4.85875068907E+04; -0.63969      ; 0.247759     
   4.88143481173E+04; -0.639566     ; 0.248393     
   4.90422484011E+04; -0.63899      ; 0.249788     
   4.92712126863E+04; -0.638129     ; 0.250514     
   4.95012459405E+04; -0.637219     ; 0.251828     
   4.97323531545E+04; -0.637465     ; 0.253067     
   4.99645393422E+04; -0.637042     ; 0.254533     
   5.01978095410E+04; -0.636323     ; 0.255461     
   5.04321688120E+04; -0.63638      ; 0.256493     
   5.06676222396E+04; -0.635186     ; 0.25808      
   5.09041749322E+04; -0.635758     ; 0.259152     
   5.11418320219E+04; -0.634399     ; 0.260077     
   5.13805986649E+04; -0.634686     ; 0.260923     
   5.16204800412E+04; -0.633587     ; 0.262374     
   5.18614813554E+04; -0.633079     ; 0.263245     
   5.21036078361E+04; -0.632667     ; 0.264452     
   5.23468647363E+04; -0.63208      ; 0.266145     
   5.25912573337E+04; -0.63158      ; 0.266592     
   5.28367909305E+04; -0.630943     ; 0.268393     
   5.30834708537E+04; -0.631251     ; 0.269655     
   5.33313024551E+04; -0.63017      ; 0.270682     
   5.35802911117E+04; -0.629537     ; 0.271703     
   5.38304422254E+04; -0.628801     ; 0.273238     
   5.40817612234E+04; -0.62839      ; 0.274148     
   5.43342535582E+04; -0.628444     ; 0.275258     
   5.45879247078E+04; -0.627646     ; 0.276839     
   5.48427801757E+04; -0.626987     ; 0.278034     
   5.50988254911E+04; -0.626542     ; 0.279129     
   5.53560662092E+04; -0.625577     ; 0.280655     
   5.56145079109E+04; -0.62511      ; 0.281624     
   5.58741562033E+04; -0.624535     ; 0.282097     
   5.61350167196E+04; -0.624102     ; 0.284157     
   5.63970951193E+04; -0.623764     ; 0.28489      
   5.66603970884E+04; -0.623277     ; 0.286327     
   5.69249283393E+04; -0.622017     ; 0.287269     
   5.71906946113E+04; -0.621444     ; 0.288967     
   5.74577016703E+04; -0.620642     ; 0.289415     
   5.77259553092E+04; -0.621493     ; 0.291725     
   5.79954613480E+04; -0.620445     ; 0.292515     
   5.82662256336E+04; -0.619891     ; 0.293831     
   5.85382540405E+04; -0.619308     ; 0.295181     
   5.88115524706E+04; -0.618739     ; 0.296244     
   5.90861268531E+04; -0.617514     ; 0.297237     
   5.93619831452E+04; -0.617177     ; 0.298949     
   5.96391273318E+04; -0.616355     ; 0.300711     
   5.99175654256E+04; -0.616108     ; 0.301471     
   6.01973034675E+04; -0.61578      ; 0.302948     
   6.04783475267E+04; -0.614688     ; 0.304312     
   6.07607037005E+04; -0.613679     ; 0.305487     
   6.10443781148E+04; -0.612824     ; 0.306587     
   6.13293769242E+04; -0.612686     ; 0.307608     
   6.16157063117E+04; -0.612033     ; 0.30964      
   6.19033724897E+04; -0.611297     ; 0.310733     
   6.21923816990E+04; -0.610836     ; 0.312156     
   6.24827402100E+04; -0.6098       ; 0.313425     
   6.27744543222E+04; -0.60972      ; 0.31461      
   6.30675303644E+04; -0.608511     ; 0.316089     
   6.33619746952E+04; -0.607569     ; 0.317353     
   6.36577937027E+04; -0.606798     ; 0.318985     
   6.39549938048E+04; -0.606484     ; 0.320447     
   6.42535814495E+04; -0.605806     ; 0.32157      
   6.45535631149E+04; -0.604738     ; 0.323139     
   6.48549453092E+04; -0.604445     ; 0.324271     
   6.51577345711E+04; -0.603293     ; 0.325422     
   6.54619374698E+04; -0.602317     ; 0.326951     
   6.57675606052E+04; -0.601813     ; 0.328438     
   6.60746106079E+04; -0.601299     ; 0.330331     
   6.63830941396E+04; -0.600808     ; 0.33132      
   6.66930178930E+04; -0.599702     ; 0.333077     
   6.70043885922E+04; -0.599589     ; 0.334458     
   6.73172129924E+04; -0.598084     ; 0.335284     
   6.76314978806E+04; -0.59759      ; 0.336882     
   6.79472500754E+04; -0.596129     ; 0.338402     
   6.82644764272E+04; -0.595598     ; 0.339641     
   6.85831838185E+04; -0.594561     ; 0.341042     
   6.89033791638E+04; -0.594047     ; 0.342981     
   6.92250694099E+04; -0.593552     ; 0.344066     
   6.95482615362E+04; -0.591902     ; 0.345473     
   6.98729625544E+04; -0.59133      ; 0.346945     
   7.01991795091E+04; -0.59121      ; 0.348795     
   7.05269194779E+04; -0.589854     ; 0.349168     
   7.08561895712E+04; -0.588813     ; 0.351249     
   7.11869969328E+04; -0.587408     ; 0.353117     
   7.15193487397E+04; -0.587594     ; 0.354271     
   7.18532522024E+04; -0.585666     ; 0.355929     
   7.21887145654E+04; -0.584956     ; 0.357215     
   7.25257431065E+04; -0.585149     ; 0.35852      
   7.28643451378E+04; -0.583515     ; 0.360274     
   7.32045280056E+04; -0.583179     ; 0.361514     
   7.35462990902E+04; -0.58174      ; 0.363042     
   7.38896658067E+04; -0.58139      ; 0.364605     
   7.42346356045E+04; -0.579905     ; 0.365865     
   7.45812159681E+04; -0.57932      ; 0.367394     
   7.49294144166E+04; -0.578572     ; 0.36873      
   7.52792385045E+04; -0.576851     ; 0.370273     
   7.56306958213E+04; -0.576415     ; 0.37132      
   7.59837939923E+04; -0.575174     ; 0.373607     
   7.63385406780E+04; -0.574433     ; 0.375075     
   7.66949435749E+04; -0.573354     ; 0.376585     
   7.70530104154E+04; -0.572274     ; 0.378322     
   7.74127489679E+04; -0.571468     ; 0.379276     
   7.77741670373E+04; -0.569958     ; 0.381107     
   7.81372724647E+04; -0.569014     ; 0.382264     
   7.85020731278E+04; -0.567919     ; 0.384693     
   7.88685769413E+04; -0.567079     ; 0.385676     
   7.92367918567E+04; -0.565773     ; 0.387529     
   7.96067258626E+04; -0.56505      ; 0.389198     
   7.99783869850E+04; -0.563796     ; 0.389997     
   8.03517832873E+04; -0.562665     ; 0.392101     
   8.07269228706E+04; -0.561727     ; 0.393301     
   8.11038138737E+04; -0.560484     ; 0.395663     
   8.14824644734E+04; -0.559505     ; 0.396992     
   8.18628828850E+04; -0.558332     ; 0.398281     
   8.22450773618E+04; -0.55724      ; 0.399943     
   8.26290561956E+04; -0.556703     ; 0.401228     
   8.30148277173E+04; -0.55547      ; 0.402793     
   8.34024002962E+04; -0.55428      ; 0.404125     
   8.37917823411E+04; -0.552653     ; 0.405794     
   8.41829822999E+04; -0.551316     ; 0.408091     
   8.45760086598E+04; -0.550486     ; 0.409251     
   8.49708699478E+04; -0.54903      ; 0.411327     
   8.53675747306E+04; -0.548635     ; 0.412478     
   8.57661316150E+04; -0.546869     ; 0.41396      
   8.61665492480E+04; -0.545285     ; 0.415266     
   8.65688363169E+04; -0.543865     ; 0.41759      
   8.69730015494E+04; -0.542541     ; 0.419053     
   8.73790537143E+04; -0.541682     ; 0.420513     
   8.77870016210E+04; -0.53989      ; 0.422699     
   8.81968541203E+04; -0.539513     ; 0.424243     
   8.86086201041E+04; -0.537613     ; 0.425685     
   8.90223085060E+04; -0.536286     ; 0.427235     
   8.94379283012E+04; -0.534863     ; 0.428961     
   8.98554885068E+04; -0.533854     ; 0.430304     
   9.02749981820E+04; -0.531983     ; 0.432111     
   9.06964664284E+04; -0.530732     ; 0.43423      
   9.11199023900E+04; -0.529778     ; 0.435711     
   9.15453152534E+04; -0.528608     ; 0.437251     
   9.19727142482E+04; -0.527174     ; 0.438511     
   9.24021086472E+04; -0.526032     ; 0.440533     
   9.28335077663E+04; -0.524821     ; 0.441715     
   9.32669209650E+04; -0.522804     ; 0.443644     
   9.37023576464E+04; -0.521312     ; 0.445227     
   9.41398272577E+04; -0.520063     ; 0.447391     
   9.45793392899E+04; -0.519229     ; 0.448787     
   9.50209032786E+04; -0.517538     ; 0.450622     
   9.54645288037E+04; -0.515611     ; 0.452009     
   9.59102254900E+04; -0.514668     ; 0.453775     
   9.63580030071E+04; -0.51235      ; 0.455641     
   9.68078710699E+04; -0.51105      ; 0.456652     
   9.72598394386E+04; -0.509849     ; 0.459139     
   9.77139179187E+04; -0.507813     ; 0.46132      
   9.81701163619E+04; -0.507141     ; 0.462301     
   9.86284446657E+04; -0.505406     ; 0.464208     
   9.90889127738E+04; -0.503797     ; 0.466137     
   9.95515306762E+04; -0.502146     ; 0.467172     
   1.00016308410E+05; -0.500283     ; 0.469539     
   1.00483256058E+05; -0.499816     ; 0.470614     
   1.00952383752E+05; -0.497439     ; 0.472513     
   1.01423701670E+05; -0.495916     ; 0.474405     
   1.01897220036E+05; -0.494566     ; 0.476056     
   1.02372949125E+05; -0.492029     ; 0.477656     
   1.02850899258E+05; -0.490445     ; 0.479299     
   1.03331080803E+05; -0.489162     ; 0.48122      
   1.03813504180E+05; -0.487073     ; 0.482964     
   1.04298179853E+05; -0.485177     ; 0.484626     
   1.04785118340E+05; -0.483725     ; 0.485908     
   1.05274330203E+05; -0.482014     ; 0.488463     
   1.05765826057E+05; -0.480743     ; 0.489908     
   1.06259616565E+05; -0.478591     ; 0.491471     
   1.06755712441E+05; -0.47728      ; 0.49348      
   1.07254124447E+05; -0.47504      ; 0.494963     
   1.07754863396E+05; -0.473336     ; 0.496896     
   1.08257940153E+05; -0.47176      ; 0.498492     
   1.08763365632E+05; -0.469402     ; 0.500054     
   1.09271150798E+05; -0.46785      ; 0.502276     
   1.09781306669E+05; -0.465525     ; 0.503901     
   1.10293844312E+05; -0.464811     ; 0.505727     
   1.10808774848E+05; -0.462194     ; 0.507265     
   1.11326109447E+05; -0.460584     ; 0.509482     
   1.11845859334E+05; -0.458714     ; 0.511002     
   1.12368035786E+05; -0.456942     ; 0.512192     
   1.12892650130E+05; -0.455148     ; 0.513727     
   1.13419713749E+05; -0.452613     ; 0.515442     
   1.13949238079E+05; -0.450862     ; 0.517489     
   1.14481234606E+05; -0.448964     ; 0.51947      
   1.15015714874E+05; -0.446783     ; 0.521678     
   1.15552690478E+05; -0.445369     ; 0.523299     
   1.16092173067E+05; -0.443138     ; 0.524786     
   1.16634174348E+05; -0.440836     ; 0.526355     
   1.17178706078E+05; -0.439011     ; 0.527839     
   1.17725780071E+05; -0.437174     ; 0.529663     
   1.18275408197E+05; -0.434178     ; 0.531543     
   1.18827602380E+05; -0.431995     ; 0.533733     
   1.19382374601E+05; -0.430643     ; 0.53544      
   1.19939736895E+05; -0.428702     ; 0.537335     
   1.20499701355E+05; -0.42676      ; 0.538237     
   1.21062280129E+05; -0.423921     ; 0.539887     
   1.21627485423E+05; -0.422047     ; 0.541865     
   1.22195329500E+05; -0.419247     ; 0.543647     
   1.22765824679E+05; -0.417402     ; 0.545437     
   1.23338983337E+05; -0.415105     ; 0.547192     
   1.23914817910E+05; -0.412666     ; 0.54895      
   1.24493340890E+05; -0.410618     ; 0.550851     
   1.25074564830E+05; -0.408606     ; 0.552655     
   1.25658502338E+05; -0.40674      ; 0.554787     
   1.26245166084E+05; -0.404024     ; 0.556286     
   1.26834568796E+05; -0.40149      ; 0.557855     
   1.27426723262E+05; -0.39946      ; 0.559162     
   1.28021642328E+05; -0.396401     ; 0.5607       
   1.28619338901E+05; -0.394596     ; 0.5626       
   1.29219825950E+05; -0.39168      ; 0.564218     
   1.29823116501E+05; -0.389353     ; 0.566435     
   1.30429223644E+05; -0.387031     ; 0.56783      
   1.31038160529E+05; -0.38495      ; 0.569999     
   1.31649940367E+05; -0.382979     ; 0.571105     
   1.32264576430E+05; -0.380056     ; 0.572846     
   1.32882082054E+05; -0.377408     ; 0.574434     
   1.33502470636E+05; -0.374766     ; 0.576083     
   1.34125755635E+05; -0.372199     ; 0.578485     
   1.34751950575E+05; -0.36966      ; 0.579934     
   1.35381069040E+05; -0.367038     ; 0.581903     
   1.36013124680E+05; -0.36518      ; 0.583051     
   1.36648131208E+05; -0.362168     ; 0.584318     
   1.37286102400E+05; -0.360052     ; 0.585903     
   1.37927052099E+05; -0.356852     ; 0.587537     
   1.38570994208E+05; -0.35441      ; 0.589318     
   1.39217942700E+05; -0.351535     ; 0.591353     
   1.39867911610E+05; -0.349304     ; 0.593615     
   1.40520915040E+05; -0.346694     ; 0.595089     
   1.41176967156E+05; -0.344199     ; 0.596246     
   1.41836082194E+05; -0.341005     ; 0.598014     
   1.42498274451E+05; -0.337649     ; 0.599271     
   1.43163558295E+05; -0.336425     ; 0.601443     
   1.43831948161E+05; -0.332297     ; 0.603141     
   1.44503458548E+05; -0.329667     ; 0.604904     
   1.45178104025E+05; -0.32742      ; 0.605288     
   1.45855899230E+05; -0.324533     ; 0.607376     
   1.46536858868E+05; -0.321511     ; 0.608551     
   1.47220997713E+05; -0.317949     ; 0.611527     
   1.47908330606E+05; -0.314932     ; 0.613218     
   1.48598872462E+05; -0.313325     ; 0.61399      
   1.49292638260E+05; -0.309631     ; 0.616494     
   1.49989643053E+05; -0.307264     ; 0.617228     
   1.50689901963E+05; -0.303514     ; 0.617538     
   1.51393430183E+05; -0.301412     ; 0.619224     
   1.52100242975E+05; -0.29736      ; 0.620997     
   1.52810355675E+05; -0.295199     ; 0.62342      
   1.53523783688E+05; -0.292145     ; 0.624595     
   1.54240542494E+05; -0.288305     ; 0.625904     
   1.54960647643E+05; -0.285503     ; 0.627148     
   1.55684114757E+05; -0.282582     ; 0.628693     
   1.56410959533E+05; -0.279337     ; 0.630181     
   1.57141197740E+05; -0.27605      ; 0.63165      
   1.57874845221E+05; -0.272353     ; 0.632873     
   1.58611917894E+05; -0.269419     ; 0.634539     
   1.59352431749E+05; -0.2659       ; 0.636647     
   1.60096402852E+05; -0.263144     ; 0.637902     
   1.60843847344E+05; -0.26027      ; 0.638955     
   1.61594781441E+05; -0.257165     ; 0.640371     
   1.62349221436E+05; -0.253665     ; 0.642104     
   1.63107183696E+05; -0.249952     ; 0.642666     
   1.63868684666E+05; -0.246582     ; 0.644441     
   1.64633740867E+05; -0.2428       ; 0.64586      
   1.65402368898E+05; -0.239439     ; 0.647027     
   1.66174585433E+05; -0.236373     ; 0.649163     
   1.66950407228E+05; -0.232434     ; 0.6502       
   1.67729851114E+05; -0.229812     ; 0.651698     
   1.68512934001E+05; -0.226241     ; 0.653155     
   1.69299672879E+05; -0.223084     ; 0.654023     
   1.70090084817E+05; -0.219196     ; 0.65515      
   1.70884186963E+05; -0.215482     ; 0.656603     
   1.71681996545E+05; -0.212221     ; 0.657694     
   1.72483530873E+05; -0.208275     ; 0.659029     
   1.73288807337E+05; -0.205193     ; 0.660388     
   1.74097843407E+05; -0.201424     ; 0.661684     
   1.74910656636E+05; -0.197907     ; 0.662708     
   1.75727264658E+05; -0.19457      ; 0.664345     
   1.76547685191E+05; -0.190555     ; 0.665293     
   1.77371936033E+05; -0.186823     ; 0.665883     
   1.78200035067E+05; -0.183404     ; 0.667177     
   1.79032000260E+05; -0.179308     ; 0.668144     
   1.79867849662E+05; -0.175318     ; 0.669297     
   1.80707601406E+05; -0.171576     ; 0.670784     
   1.81551273712E+05; -0.167804     ; 0.672114     
   1.82398884883E+05; -0.164275     ; 0.672927     
   1.83250453310E+05; -0.161155     ; 0.673799     
   1.84105997466E+05; -0.156698     ; 0.67518      
   1.84965535915E+05; -0.153288     ; 0.6757       
   1.85829087304E+05; -0.148865     ; 0.67653      
   1.86696670368E+05; -0.144724     ; 0.678171     
   1.87568303931E+05; -0.140755     ; 0.678419     
   1.88444006902E+05; -0.136945     ; 0.680592     
   1.89323798281E+05; -0.133729     ; 0.681        
   1.90207697155E+05; -0.128799     ; 0.6825       
   1.91095722701E+05; -0.125574     ; 0.682709     
   1.91987894186E+05; -0.120451     ; 0.683589     
   1.92884230965E+05; -0.117238     ; 0.684692     
   1.93784752485E+05; -0.112393     ; 0.68553      
   1.94689478283E+05; -0.108752     ; 0.686518     
   1.95598427988E+05; -0.103884     ; 0.687565     
   1.96511621321E+05; -0.100544     ; 0.688176     
   1.97429078093E+05; -0.0962407    ; 0.688898     
   1.98350818209E+05; -0.0923403    ; 0.689558     
   1.99276861668E+05; -0.087735     ; 0.689768     
   2.00207228559E+05; -0.0841728    ; 0.690166     
   2.01141939068E+05; -0.0797348    ; 0.690813     
   2.02081013475E+05; -0.0754158    ; 0.691797     
   2.03024472152E+05; -0.0703964    ; 0.692505     
   2.03972335569E+05; -0.0659055    ; 0.692766     
   2.04924624290E+05; -0.0617292    ; 0.693431     
   2.05881358976E+05; -0.0571951    ; 0.69383      
   2.06842560384E+05; -0.0530652    ; 0.694739     
   2.07808249367E+05; -0.0491112    ; 0.695583     
   2.08778446877E+05; -0.0447287    ; 0.695324     
   2.09753173963E+05; -0.0402066    ; 0.695844     
   2.10732451772E+05; -0.035938     ; 0.696119     
   2.11716301549E+05; -0.0305959    ; 0.696785     
   2.12704744642E+05; -0.0263547    ; 0.696742     
   2.13697802493E+05; -0.021713     ; 0.697479     
   2.14695496648E+05; -0.017337     ; 0.697968     
   2.15697848754E+05; -0.012838     ; 0.69768      
   2.16704880555E+05; -0.00835952   ; 0.698048     
   2.17716613901E+05; -0.00366873   ; 0.698218     
   2.18733070742E+05;  0.000750974  ; 0.698565     
   2.19754273131E+05;  0.0056626    ; 0.698624     
   2.20780243222E+05;  0.01047      ; 0.699203     
   2.21811003275E+05;  0.0153607    ; 0.699737     
   2.22846575654E+05;  0.0196567    ; 0.699101     
   2.23886982825E+05;  0.024106     ; 0.699142     
   2.24932247360E+05;  0.0290696    ; 0.699046     
   2.25982391938E+05;  0.0341868    ; 0.699458     
   2.27037439341E+05;  0.0389905    ; 0.698899     
   2.28097412461E+05;  0.0438452    ; 0.699165     
   2.29162334293E+05;  0.04873      ; 0.699362     
   2.30232227941E+05;  0.0534277    ; 0.699072     
   2.31307116618E+05;  0.0580453    ; 0.699281     
   2.32387023644E+05;  0.0628654    ; 0.698684     
   2.33471972449E+05;  0.0678845    ; 0.698344     
   2.34561986570E+05;  0.0729563    ; 0.69789      
   2.35657089656E+05;  0.0774999    ; 0.697354     
   2.36757305467E+05;  0.0829738    ; 0.697434     
   2.37862657872E+05;  0.0879527    ; 0.697351     
   2.38973170853E+05;  0.0927949    ; 0.696734     
   2.40088868502E+05;  0.0976933    ; 0.696655     
   2.41209775025E+05;  0.102558     ; 0.69617      
   2.42335914742E+05;  0.107318     ; 0.695344     
   2.43467312084E+05;  0.112819     ; 0.694514     
   2.44603991599E+05;  0.117641     ; 0.693934     
   2.45745977946E+05;  0.123263     ; 0.693133     
   2.46893295901E+05;  0.128575     ; 0.692656     
   2.48045970358E+05;  0.133362     ; 0.692308     
   2.49204026323E+05;  0.138552     ; 0.691769     
   2.50367488922E+05;  0.143504     ; 0.690562     
   2.51536383396E+05;  0.148873     ; 0.689521     
   2.52710735105E+05;  0.153551     ; 0.688758     
   2.53890569527E+05;  0.159386     ; 0.687786     
   2.55075912261E+05;  0.164452     ; 0.687242     
   2.56266789022E+05;  0.169217     ; 0.686187     
   2.57463225647E+05;  0.175012     ; 0.685102     
   2.58665248094E+05;  0.180034     ; 0.683451     
   2.59872882442E+05;  0.185094     ; 0.682537     
   2.61086154890E+05;  0.190682     ; 0.68138      
   2.62305091761E+05;  0.196319     ; 0.68015      
   2.63529719502E+05;  0.201707     ; 0.679136     
   2.64760064680E+05;  0.206484     ; 0.677913     
   2.65996153990E+05;  0.211953     ; 0.676623     
   2.67238014248E+05;  0.217006     ; 0.675346     
   2.68485672398E+05;  0.222722     ; 0.673544     
   2.69739155508E+05;  0.227771     ; 0.671719     
   2.70998490774E+05;  0.233765     ; 0.670531     
   2.72263705518E+05;  0.238887     ; 0.669104     
   2.73534827189E+05;  0.244359     ; 0.667624     
   2.74811883365E+05;  0.249519     ; 0.665765     
   2.76094901752E+05;  0.254768     ; 0.663769     
   2.77383910186E+05;  0.260269     ; 0.661849     
   2.78678936634E+05;  0.265683     ; 0.660004     
   2.79980009191E+05;  0.271326     ; 0.658584     
   2.81287156085E+05;  0.276962     ; 0.656641     
   2.82600405676E+05;  0.28224      ; 0.654356     
   2.83919786454E+05;  0.287593     ; 0.652734     
   2.85245327046E+05;  0.292835     ; 0.650438     
   2.86577056209E+05;  0.298727     ; 0.648403     
   2.87915002836E+05;  0.30418      ; 0.645814     
   2.89259195955E+05;  0.309781     ; 0.644015     
   2.90609664728E+05;  0.315004     ; 0.641567     
   2.91966438456E+05;  0.320491     ; 0.638954     
   2.93329546573E+05;  0.326209     ; 0.636874     
   2.94699018654E+05;  0.331504     ; 0.634358     
   2.96074884410E+05;  0.337195     ; 0.632048     
   2.97457173691E+05;  0.34277      ; 0.629278     
   2.98845916487E+05;  0.348553     ; 0.626277     
   3.00241142927E+05;  0.353599     ; 0.623637     
   3.01642883282E+05;  0.359469     ; 0.621253     
   3.03051167963E+05;  0.364901     ; 0.618719     
   3.04466027525E+05;  0.370316     ; 0.615718     
   3.05887492662E+05;  0.375562     ; 0.612414     
   3.07315594215E+05;  0.381009     ; 0.609737     
   3.08750363168E+05;  0.386587     ; 0.606625     
   3.10191830648E+05;  0.392096     ; 0.603678     
   3.11640027929E+05;  0.397745     ; 0.600214     
   3.13094986430E+05;  0.403288     ; 0.597413     
   3.14556737718E+05;  0.408573     ; 0.593753     
   3.16025313507E+05;  0.414175     ; 0.589888     
   3.17500745657E+05;  0.41936      ; 0.587188     
   3.18983066180E+05;  0.424974     ; 0.583244     
   3.20472307235E+05;  0.43066      ; 0.580002     
   3.21968501132E+05;  0.436021     ; 0.576682     
   3.23471680332E+05;  0.441597     ; 0.572922     
   3.24981877448E+05;  0.446978     ; 0.569235     
   3.26499125243E+05;  0.452257     ; 0.564968     
   3.28023456637E+05;  0.457728     ; 0.561199     
   3.29554904699E+05;  0.463308     ; 0.557287     
   3.31093502656E+05;  0.468633     ; 0.553491     
   3.32639283888E+05;  0.473594     ; 0.549391     
   3.34192281933E+05;  0.478982     ; 0.544999     
   3.35752530483E+05;  0.484168     ; 0.540907     
   3.37320063389E+05;  0.489373     ; 0.536512     
   3.38894914659E+05;  0.495117     ; 0.532297     
   3.40477118462E+05;  0.500493     ; 0.528238     
   3.42066709123E+05;  0.505745     ; 0.523777     
   3.43663721130E+05;  0.51091      ; 0.518921     
   3.45268189131E+05;  0.516272     ; 0.514114     
   3.46880147937E+05;  0.521064     ; 0.509421     
   3.48499632518E+05;  0.526708     ; 0.504782     
   3.50126678012E+05;  0.531652     ; 0.49993      
   3.51761319717E+05;  0.536953     ; 0.4953       
   3.53403593099E+05;  0.542013     ; 0.490548     
   3.55053533788E+05;  0.547185     ; 0.485281     
   3.56711177579E+05;  0.552039     ; 0.479946     
   3.58376560437E+05;  0.556777     ; 0.474689     
   3.60049718493E+05;  0.561995     ; 0.46954      
   3.61730688047E+05;  0.566768     ; 0.464355     
   3.63419505570E+05;  0.572        ; 0.459139     
   3.65116207700E+05;  0.576443     ; 0.453127     
   3.66820831249E+05;  0.581277     ; 0.447829     
   3.68533413199E+05;  0.586456     ; 0.442079     
   3.70253990707E+05;  0.591219     ; 0.436542     
   3.71982601101E+05;  0.59601      ; 0.430972     
   3.73719281885E+05;  0.600383     ; 0.425103     
   3.75464070736E+05;  0.605339     ; 0.419246     
   3.77217005509E+05;  0.610001     ; 0.413089     
   3.78978124235E+05;  0.614343     ; 0.407194     
   3.80747465123E+05;  0.61903      ; 0.400949     
   3.82525066560E+05;  0.623538     ; 0.394855     
   3.84310967111E+05;  0.628093     ; 0.388533     
   3.86105205523E+05;  0.632502     ; 0.381896     
   3.87907820723E+05;  0.636928     ; 0.375566     
   3.89718851819E+05;  0.641201     ; 0.369153     
   3.91538338104E+05;  0.645126     ; 0.362616     
   3.93366319052E+05;  0.649541     ; 0.355915     
   3.95202834322E+05;  0.653473     ; 0.34915      
   3.97047923759E+05;  0.657612     ; 0.342282     
   3.98901627392E+05;  0.661889     ; 0.335309     
   4.00763985440E+05;  0.665854     ; 0.328543     
   4.02635038307E+05;  0.6699       ; 0.321177     
   4.04514826587E+05;  0.673746     ; 0.314338     
   4.06403391062E+05;  0.677597     ; 0.307016     
   4.08300772707E+05;  0.681367     ; 0.299495     
   4.10207012686E+05;  0.684751     ; 0.292267     
   4.12122152357E+05;  0.688056     ; 0.285104     
   4.14046233269E+05;  0.691992     ; 0.277375     
   4.15979297167E+05;  0.695241     ; 0.269758     
   4.17921385989E+05;  0.69871      ; 0.262266     
   4.19872541871E+05;  0.702172     ; 0.254723     
   4.21832807144E+05;  0.705017     ; 0.246596     
   4.23802224337E+05;  0.708155     ; 0.238965     
   4.25780836177E+05;  0.711332     ; 0.230818     
   4.27768685592E+05;  0.714681     ; 0.223128     
   4.29765815710E+05;  0.7177       ; 0.21481      
   4.31772269860E+05;  0.720551     ; 0.206484     
   4.33788091572E+05;  0.722991     ; 0.198439     
   4.35813324582E+05;  0.7258       ; 0.189986     
   4.37848012827E+05;  0.728295     ; 0.181751     
   4.39892200452E+05;  0.73067      ; 0.173447     
   4.41945931807E+05;  0.732887     ; 0.164677     
   4.44009251449E+05;  0.735534     ; 0.156418     
   4.46082204141E+05;  0.737984     ; 0.147778     
   4.48164834860E+05;  0.739675     ; 0.138841     
   4.50257188788E+05;  0.741823     ; 0.130024     
   4.52359311320E+05;  0.743897     ; 0.121117     
   4.54471248063E+05;  0.745544     ; 0.112009     
   4.56593044838E+05;  0.747535     ; 0.103316     
   4.58724747677E+05;  0.748899     ; 0.0939707    
   4.60866402829E+05;  0.750202     ; 0.0853959    
   4.63018056759E+05;  0.751626     ; 0.0757425    
   4.65179756148E+05;  0.75321      ; 0.0666304    
   4.67351547896E+05;  0.754369     ; 0.0575675    
   4.69533479120E+05;  0.755199     ; 0.0482347    
   4.71725597160E+05;  0.756244     ; 0.0385464    
   4.73927949575E+05;  0.757155     ; 0.0288727    
   4.76140584145E+05;  0.75772      ; 0.0196262    
   4.78363548876E+05;  0.75821      ; 0.00983409   
   4.80596891996E+05;  0.758799     ; 0.000173217  
   4.82840661958E+05;  0.758981     ;-0.00922993   
   4.85094907443E+05;  0.75912      ;-0.0188827    
   4.87359677358E+05;  0.759394     ;-0.0291686    
   4.89635020839E+05;  0.759128     ;-0.0389208    
   4.91920987250E+05;  0.75896      ;-0.0486343    
   4.94217626187E+05;  0.758424     ;-0.0584475    
   4.96524987477E+05;  0.757827     ;-0.0686777    
   4.98843121179E+05;  0.757584     ;-0.0786462    
   5.01172077587E+05;  0.756581     ;-0.0889298    
   5.03511907229E+05;  0.755711     ;-0.0989185    
   5.05862660869E+05;  0.754672     ;-0.108859     
   5.08224389508E+05;  0.753566     ;-0.119374     
   5.10597144385E+05;  0.751409     ;-0.129103     
   5.12980976978E+05;  0.750439     ;-0.139611     
   5.15375939007E+05;  0.748677     ;-0.149812     
   5.17782082431E+05;  0.746913     ;-0.160446     
   5.20199459453E+05;  0.744839     ;-0.170564     
   5.22628122520E+05;  0.742849     ;-0.180826     
   5.25068124323E+05;  0.740612     ;-0.191324     
   5.27519517799E+05;  0.73805      ;-0.201895     
   5.29982356133E+05;  0.735261     ;-0.212302     
   5.32456692757E+05;  0.732519     ;-0.222188     
   5.34942581354E+05;  0.729534     ;-0.232571     
   5.37440075856E+05;  0.72601      ;-0.243252     
   5.39949230449E+05;  0.723054     ;-0.253823     
   5.42470099570E+05;  0.719173     ;-0.264265     
   5.45002737910E+05;  0.715542     ;-0.274529     
   5.47547200417E+05;  0.711722     ;-0.28495      
   5.50103542295E+05;  0.707241     ;-0.295519     
   5.52671819005E+05;  0.702819     ;-0.305819     
   5.55252086267E+05;  0.6988       ;-0.316208     
   5.57844400061E+05;  0.694289     ;-0.326416     
   5.60448816631E+05;  0.689343     ;-0.33667      
   5.63065392479E+05;  0.684059     ;-0.34714      
   5.65694184374E+05;  0.679021     ;-0.357291     
   5.68335249350E+05;  0.67383      ;-0.367986     
   5.70988644705E+05;  0.668068     ;-0.378274     
   5.73654428008E+05;  0.662371     ;-0.388339     
   5.76332657093E+05;  0.656672     ;-0.398213     
   5.79023390067E+05;  0.650374     ;-0.408268     
   5.81726685306E+05;  0.643648     ;-0.41817      
   5.84442601461E+05;  0.636969     ;-0.428239     
   5.87171197454E+05;  0.630229     ;-0.438401     
   5.89912532485E+05;  0.623368     ;-0.448283     
   5.92666666028E+05;  0.616328     ;-0.458171     
   5.95433657835E+05;  0.608938     ;-0.46766      
   5.98213567940E+05;  0.6013       ;-0.476853     
   6.01006456652E+05;  0.592982     ;-0.486576     
   6.03812384566E+05;  0.585214     ;-0.496163     
   6.06631412558E+05;  0.577009     ;-0.505593     
   6.09463601789E+05;  0.568482     ;-0.514952     
   6.12309013704E+05;  0.560263     ;-0.523997     
   6.15167710037E+05;  0.551523     ;-0.532786     
   6.18039752809E+05;  0.542255     ;-0.54157      
   6.20925204330E+05;  0.532726     ;-0.550261     
   6.23824127202E+05;  0.523237     ;-0.559143     
   6.26736584319E+05;  0.513578     ;-0.567899     
   6.29662638868E+05;  0.503573     ;-0.57638      
   6.32602354333E+05;  0.493814     ;-0.584959     
   6.35555794491E+05;  0.483819     ;-0.593205     
   6.38523023420E+05;  0.473316     ;-0.600935     
   6.41504105496E+05;  0.46223      ;-0.608239     
   6.44499105394E+05;  0.451293     ;-0.616106     
   6.47508088094E+05;  0.440186     ;-0.624324     
   6.50531118876E+05;  0.429118     ;-0.631472     
   6.53568263328E+05;  0.417764     ;-0.638338     
   6.56619587343E+05;  0.406512     ;-0.645283     
   6.59685157119E+05;  0.394178     ;-0.652091     
   6.62765039168E+05;  0.382272     ;-0.658667     
   6.65859300308E+05;  0.369565     ;-0.664962     
   6.68968007672E+05;  0.357549     ;-0.671139     
   6.72091228705E+05;  0.345362     ;-0.677175     
   6.75229031167E+05;  0.332432     ;-0.682805     
   6.78381483135E+05;  0.318988     ;-0.687825     
   6.81548653003E+05;  0.305917     ;-0.693289     
   6.84730609485E+05;  0.29252      ;-0.698908     
   6.87927421615E+05;  0.278894     ;-0.703544     
   6.91139158750E+05;  0.266062     ;-0.707816     
   6.94365890570E+05;  0.252052     ;-0.7114       
   6.97607687083E+05;  0.237786     ;-0.715718     
   7.00864618619E+05;  0.223837     ;-0.719295     
   7.04136755841E+05;  0.209599     ;-0.723164     
   7.07424169739E+05;  0.195563     ;-0.726771     
   7.10726931637E+05;  0.181214     ;-0.729465     
   7.14045113188E+05;  0.166424     ;-0.731833     
   7.17378786384E+05;  0.15154      ;-0.733822     
   7.20728023550E+05;  0.136546     ;-0.736415     
   7.24092897350E+05;  0.121412     ;-0.737541     
   7.27473480788E+05;  0.106378     ;-0.739098     
   7.30869847206E+05;  0.0915636    ;-0.740347     
   7.34282070291E+05;  0.0768792    ;-0.740928     
   7.37710224074E+05;  0.0613533    ;-0.741133     
   7.41154382930E+05;  0.0462352    ;-0.740943     
   7.44614621583E+05;  0.0304061    ;-0.740766     
   7.48091015104E+05;  0.0147154    ;-0.740355     
   7.51583638916E+05; -0.000880699  ;-0.739777     
   7.55092568793E+05; -0.0163439    ;-0.738425     
   7.58617880864E+05; -0.0323114    ;-0.736555     
   7.62159651613E+05; -0.0474767    ;-0.734594     
   7.65717957881E+05; -0.0629626    ;-0.731903     
   7.69292876866E+05; -0.0788247    ;-0.728837     
   7.72884486130E+05; -0.0941068    ;-0.726006     
   7.76492863594E+05; -0.107759     ;-0.721987     
   7.80118087545E+05; -0.126482     ;-0.717939     
   7.83760236633E+05; -0.14154      ;-0.713725     
   7.87419389878E+05; -0.156821     ;-0.709288     
   7.91095626666E+05; -0.172612     ;-0.704085     
   7.94789026757E+05; -0.187673     ;-0.698621     
   7.98499670281E+05; -0.203433     ;-0.692402     
   8.02227637742E+05; -0.218249     ;-0.686552     
   8.05973010021E+05; -0.23416      ;-0.679953     
   8.09735868376E+05; -0.249034     ;-0.673156     
   8.13516294445E+05; -0.263603     ;-0.665611     
   8.17314370245E+05; -0.278572     ;-0.657786     
   8.21130178180E+05; -0.293476     ;-0.648864     
   8.24963801035E+05; -0.308479     ;-0.640659     
   8.28815321983E+05; -0.323011     ;-0.631837     
   8.32684824584E+05; -0.336772     ;-0.62257      
   8.36572392791E+05; -0.350485     ;-0.612742     
   8.40478110946E+05; -0.364271     ;-0.602494     
   8.44402063787E+05; -0.377964     ;-0.59201      
   8.48344336445E+05; -0.391332     ;-0.580728     
   8.52305014451E+05; -0.404707     ;-0.569183     
   8.56284183734E+05; -0.417303     ;-0.558107     
   8.60281930626E+05; -0.430104     ;-0.54584      
   8.64298341858E+05; -0.442414     ;-0.533717     
   8.68333504570E+05; -0.45421      ;-0.520657     
   8.72387506307E+05; -0.466444     ;-0.507324     
   8.76460435023E+05; -0.477586     ;-0.494259     
   8.80552379083E+05; -0.488722     ;-0.480061     
   8.84663427264E+05; -0.500324     ;-0.466046     
   8.88793668757E+05; -0.510076     ;-0.451812     
   8.92943193172E+05; -0.520577     ;-0.436662     
   8.97112090533E+05; -0.530257     ;-0.422318     
   9.01300451289E+05; -0.539511     ;-0.406207     
   9.05508366308E+05; -0.54842      ;-0.391076     
   9.09735926883E+05; -0.557095     ;-0.375038     
   9.13983224734E+05; -0.56488      ;-0.358457     
   9.18250352008E+05; -0.572866     ;-0.342564     
   9.22537401284E+05; -0.579887     ;-0.325071     
   9.26844465572E+05; -0.58745      ;-0.30818      
   9.31171638315E+05; -0.593815     ;-0.291387     
   9.35519013396E+05; -0.599446     ;-0.274105     
   9.39886685132E+05; -0.605305     ;-0.256013     
   9.44274748283E+05; -0.610054     ;-0.238442     
   9.48683298050E+05; -0.614492     ;-0.220756     
   9.53112430081E+05; -0.618986     ;-0.202465     
   9.57562240467E+05; -0.622465     ;-0.183698     
   9.62032825750E+05; -0.625442     ;-0.165337     
   9.66524282922E+05; -0.628197     ;-0.147002     
   9.71036709427E+05; -0.630395     ;-0.128675     
   9.75570203167E+05; -0.632001     ;-0.107518     
   9.80124862497E+05; -0.632        ;-0.0906477    
   9.84700786234E+05; -0.632884     ;-0.0716943    
   9.89298073655E+05; -0.632582     ;-0.0530944    
   9.93916824501E+05; -0.63242      ;-0.0335155    
   9.98557138979E+05; -0.630919     ;-0.0152855    
   1.00321911776E+06; -0.628978     ; 0.00425811   
   1.00790286200E+06; -0.62715      ; 0.0234511    
   1.01260847330E+06; -0.623978     ; 0.0420992    
   1.01733605376E+06; -0.620112     ; 0.0608542    
   1.02208570595E+06; -0.616318     ; 0.0802747    
   1.02685753291E+06; -0.611865     ; 0.0982039    
   1.03165163817E+06; -0.606474     ; 0.117206     
   1.03646812574E+06; -0.600447     ; 0.135369     
   1.04130710012E+06; -0.594497     ; 0.153185     
   1.04616866629E+06; -0.587412     ; 0.171655     
   1.05105292973E+06; -0.580234     ; 0.189859     
   1.05595999641E+06; -0.572902     ; 0.207734     
   1.06088997278E+06; -0.564152     ; 0.224957     
   1.06584296581E+06; -0.555134     ; 0.242581     
   1.07081908295E+06; -0.544936     ; 0.259566     
   1.07581843216E+06; -0.534613     ; 0.27609      
   1.08084112191E+06; -0.524349     ; 0.292828     
   1.08588726117E+06; -0.513348     ; 0.309422     
   1.09095695941E+06; -0.501501     ; 0.324919     
   1.09605032663E+06; -0.489187     ; 0.340804     
   1.10116747333E+06; -0.476655     ; 0.35607      
   1.10630851053E+06; -0.463362     ; 0.37068      
   1.11147354977E+06; -0.450285     ; 0.384168     
   1.11666270311E+06; -0.435808     ; 0.399019     
   1.12187608312E+06; -0.42168      ; 0.413406     
   1.12711380292E+06; -0.406304     ; 0.425841     
   1.13237597614E+06; -0.390827     ; 0.438728     
   1.13766271695E+06; -0.374994     ; 0.45094      
   1.14297414004E+06; -0.358761     ; 0.462424     
   1.14831036066E+06; -0.343122     ; 0.474226     
   1.15367149457E+06; -0.325167     ; 0.484871     
   1.15905765809E+06; -0.307621     ; 0.494747     
   1.16446896807E+06; -0.28971      ; 0.50415      
   1.16990554191E+06; -0.27161      ; 0.513353     
   1.17536749757E+06; -0.252887     ; 0.521716     
   1.18085495355E+06; -0.234573     ; 0.529444     
   1.18636802889E+06; -0.215941     ; 0.537216     
   1.19190684321E+06; -0.19653      ; 0.543821     
   1.19747151667E+06; -0.17659      ; 0.550176     
   1.20306217002E+06; -0.157117     ; 0.555243     
   1.20867892452E+06; -0.13735      ; 0.560178     
   1.21432190206E+06; -0.117341     ; 0.564308     
   1.21999122505E+06; -0.096954     ; 0.567495     
   1.22568701649E+06; -0.0764714    ; 0.571282     
   1.23140939996E+06; -0.0566548    ; 0.573306     
   1.23715849961E+06; -0.035775     ; 0.574741     
   1.24293444017E+06; -0.0147516    ; 0.57494      
   1.24873734695E+06;  0.00613659   ; 0.574975     
   1.25456734585E+06;  0.0268015    ; 0.574464     
   1.26042456335E+06;  0.0478215    ; 0.57303      
   1.26630912653E+06;  0.0685128    ; 0.571231     
   1.27222116306E+06;  0.0890921    ; 0.56866      
   1.27816080120E+06;  0.110441     ; 0.564814     
   1.28412816982E+06;  0.13085      ; 0.560189     
   1.29012339839E+06;  0.151447     ; 0.555157     
   1.29614661697E+06;  0.171839     ; 0.549502     
   1.30219795624E+06;  0.192388     ; 0.54304      
   1.30827754749E+06;  0.212773     ; 0.536626     
   1.31438552262E+06;  0.232669     ; 0.528768     
   1.32052201414E+06;  0.252081     ; 0.52014      
   1.32668715520E+06;  0.271321     ; 0.510159     
   1.33288107954E+06;  0.290167     ; 0.500092     
   1.33910392155E+06;  0.308968     ; 0.489294     
   1.34535581624E+06;  0.327419     ; 0.477838     
   1.35163689924E+06;  0.345283     ; 0.466083     
   1.35794730683E+06;  0.362976     ; 0.453243     
   1.36428717592E+06;  0.380489     ; 0.439604     
   1.37065664404E+06;  0.397365     ; 0.425537     
   1.37705584940E+06;  0.413657     ; 0.410631     
   1.38348493083E+06;  0.428968     ; 0.394723     
   1.38994402780E+06;  0.444058     ; 0.378693     
   1.39643328046E+06;  0.459222     ; 0.362171     
   1.40295282959E+06;  0.472817     ; 0.344693     
   1.40950281664E+06;  0.486516     ; 0.326766     
   1.41608338371E+06;  0.49934      ; 0.308007     
   1.42269467357E+06;  0.511431     ; 0.289057     
   1.42933682967E+06;  0.523142     ; 0.269454     
   1.43600999609E+06;  0.533519     ; 0.249079     
   1.44271431763E+06;  0.543896     ; 0.229235     
   1.44944993974E+06;  0.553026     ; 0.207787     
   1.45621700855E+06;  0.561223     ; 0.186273     
   1.46301567087E+06;  0.568947     ; 0.164467     
   1.46984607422E+06;  0.575687     ; 0.142282     
   1.47670836676E+06;  0.581171     ; 0.119702     
   1.48360269740E+06;  0.586678     ; 0.096816     
   1.49052921570E+06;  0.590638     ; 0.0737515    
   1.49748807195E+06;  0.59385      ; 0.0502122    
   1.50447941711E+06;  0.595656     ; 0.0266074    
   1.51150340287E+06;  0.596641     ; 0.00275022   
   1.51856018161E+06;  0.597183     ;-0.0214748    
   1.52564990645E+06;  0.596488     ;-0.045441     
   1.53277273119E+06;  0.594772     ;-0.0694914    
   1.53992881038E+06;  0.591927     ;-0.0934062    
   1.54711829925E+06;  0.587802     ;-0.117286     
   1.55434135380E+06;  0.583094     ;-0.141404     
   1.56159813074E+06;  0.577011     ;-0.165276     
   1.56888878750E+06;  0.569982     ;-0.189446     
   1.57621348226E+06;  0.562364     ;-0.213048     
   1.58357237393E+06;  0.553197     ;-0.236339     
   1.59096562217E+06;  0.542825     ;-0.258825     
   1.59839338738E+06;  0.531893     ;-0.281313     
   1.60585583071E+06;  0.519164     ;-0.303185     
   1.61335311406E+06;  0.506486     ;-0.324972     
   1.62088540009E+06;  0.491553     ;-0.34688      
   1.62845285222E+06;  0.47645      ;-0.367386     
   1.63605563463E+06;  0.460419     ;-0.387464     
   1.64369391226E+06;  0.442447     ;-0.40684      
   1.65136785083E+06;  0.424785     ;-0.425338     
   1.65907761684E+06;  0.405562     ;-0.442948     
   1.66682337755E+06;  0.385771     ;-0.460109     
   1.67460530100E+06;  0.36448      ;-0.47618      
   1.68242355604E+06;  0.341979     ;-0.491126     
   1.69027831229E+06;  0.319232     ;-0.505321     
   1.69816974015E+06;  0.296005     ;-0.518826     
   1.70609801085E+06;  0.271771     ;-0.530791     
   1.71406329638E+06;  0.246871     ;-0.541814     
   1.72206576956E+06;  0.221551     ;-0.551312     
   1.73010560400E+06;  0.19559      ;-0.560168     
   1.73818297415E+06;  0.168928     ;-0.567278     
   1.74629805523E+06;  0.142029     ;-0.573297     
   1.75445102331E+06;  0.114885     ;-0.578116     
   1.76264205528E+06;  0.0868178    ;-0.581668     
   1.77087132885E+06;  0.0592159    ;-0.584353     
   1.77913902254E+06;  0.0309137    ;-0.58465      
   1.78744531575E+06;  0.00275386   ;-0.583922     
   1.79579038867E+06; -0.0258939    ;-0.580775     
   1.80417442236E+06; -0.0540525    ;-0.57705      
   1.81259759871E+06; -0.081936     ;-0.571692     
   1.82106010047E+06; -0.110088     ;-0.564758     
   1.82956211125E+06; -0.137794     ;-0.556933     
   1.83810381549E+06; -0.165158     ;-0.54676      
   1.84668539851E+06; -0.191864     ;-0.535706     
   1.85530704650E+06; -0.218283     ;-0.522957     
   1.86396894651E+06; -0.24385      ;-0.508795     
   1.87267128646E+06; -0.268843     ;-0.492952     
   1.88141425515E+06; -0.293296     ;-0.476047     
   1.89019804228E+06; -0.316527     ;-0.458046     
   1.89902283840E+06; -0.338835     ;-0.438436     
   1.90788883499E+06; -0.36017      ;-0.41748      
   1.91679622438E+06; -0.380333     ;-0.395        
   1.92574519984E+06; -0.399857     ;-0.371842     
   1.93473595552E+06; -0.417387     ;-0.347577     
   1.94376868647E+06; -0.433574     ;-0.322056     
   1.95284358867E+06; -0.44887      ;-0.295642     
   1.96196085901E+06; -0.46217      ;-0.268469     
   1.97112069528E+06; -0.474256     ;-0.240656     
   1.98032329621E+06; -0.484529     ;-0.212052     
   1.98956886147E+06; -0.493359     ;-0.182299     
   1.99885759164E+06; -0.500386     ;-0.152733     
   2.00818968825E+06; -0.505716     ;-0.122429     
   2.01756535375E+06; -0.509523     ;-0.0917921    
   2.02698479156E+06; -0.511164     ;-0.0608545    
   2.03644820605E+06; -0.511309     ;-0.0298551    
   2.04595580252E+06; -0.509533     ; 0.00122721   
   2.05550778725E+06; -0.506094     ; 0.0318044    
   2.06510436748E+06; -0.500518     ; 0.0628979    
   2.07474575141E+06; -0.493386     ; 0.093294     
   2.08443214821E+06; -0.484061     ; 0.122677     
   2.09416376803E+06; -0.473828     ; 0.152382     
   2.10394082202E+06; -0.461101     ; 0.181215     
   2.11376352229E+06; -0.446651     ; 0.209226     
   2.12363208194E+06; -0.430469     ; 0.236437     
   2.13354671509E+06; -0.412871     ; 0.262318     
   2.14350763684E+06; -0.393669     ; 0.287762     
   2.15351506329E+06; -0.372822     ; 0.311692     
   2.16356921157E+06; -0.350792     ; 0.334076     
   2.17367029980E+06; -0.32722      ; 0.355629     
   2.18381854713E+06; -0.30177      ; 0.375186     
   2.19401417374E+06; -0.276377     ; 0.393045     
   2.20425740082E+06; -0.249401     ; 0.409773     
   2.21454845061E+06; -0.220865     ; 0.424758     
   2.22488754638E+06; -0.191884     ; 0.43812      
   2.23527491245E+06; -0.161967     ; 0.449436     
   2.24571077416E+06; -0.131086     ; 0.458644     
   2.25619535795E+06; -0.100028     ; 0.466386     
   2.26672889126E+06; -0.0684699    ; 0.47198      
   2.27731160265E+06; -0.0361893    ; 0.475607     
   2.28794372169E+06; -0.00410258   ; 0.477227     
   2.29862547907E+06;  0.0284361    ; 0.476458     
   2.30935710654E+06;  0.0605392    ; 0.473894     
   2.32013883691E+06;  0.0929089    ; 0.469207     
   2.33097090411E+06;  0.124672     ; 0.462537     
   2.34185354315E+06;  0.155836     ; 0.45369      
   2.35278699013E+06;  0.186977     ; 0.442746     
   2.36377148226E+06;  0.216964     ; 0.429712     
   2.37480725785E+06;  0.246275     ; 0.414904     
   2.38589455633E+06;  0.274213     ; 0.398002     
   2.39703361825E+06;  0.301777     ; 0.379557     
   2.40822468528E+06;  0.327652     ; 0.359257     
   2.41946800021E+06;  0.352296     ; 0.336844     
   2.43076380698E+06;  0.375379     ; 0.313047     
   2.44211235065E+06;  0.396815     ; 0.287612     
   2.45351387743E+06;  0.416575     ; 0.260714     
   2.46496863470E+06;  0.434888     ; 0.232474     
   2.47647687096E+06;  0.450865     ; 0.202955     
   2.48803883590E+06;  0.465053     ; 0.172332     
   2.49965478036E+06;  0.477062     ; 0.140545     
   2.51132495636E+06;  0.486822     ; 0.108212     
   2.52304961708E+06;  0.494357     ; 0.0750295    
   2.53482901691E+06;  0.499813     ; 0.0411504    
   2.54666341139E+06;  0.502891     ; 0.00699741   
   2.55855305729E+06;  0.50318      ;-0.027364     
   2.57049821256E+06;  0.501377     ;-0.061849     
   2.58249913636E+06;  0.497039     ;-0.0963956    
   2.59455608905E+06;  0.490233     ;-0.130575     
   2.60666933222E+06;  0.480868     ;-0.164083     
   2.61883912867E+06;  0.46919      ;-0.197262     
   2.63106574243E+06;  0.454968     ;-0.229365     
   2.64334943877E+06;  0.438415     ;-0.260819     
   2.65569048418E+06;  0.419466     ;-0.290784     
   2.66808914643E+06;  0.398253     ;-0.319819     
   2.68054569449E+06;  0.374993     ;-0.346544     
   2.69306039863E+06;  0.349605     ;-0.372486     
   2.70563353035E+06;  0.322437     ;-0.395891     
   2.71826536245E+06;  0.293305     ;-0.417507     
   2.73095616896E+06;  0.262352     ;-0.43687      
   2.74370622524E+06;  0.23002      ;-0.45378      
   2.75651580790E+06;  0.196486     ;-0.468547     
   2.76938519486E+06;  0.161856     ;-0.480415     
   2.78231466531E+06;  0.125803     ;-0.489683     
   2.79530449978E+06;  0.0895885    ;-0.495871     
   2.80835498008E+06;  0.0525211    ;-0.499863     
   2.82146638936E+06;  0.0148426    ;-0.500606     
   2.83463901207E+06; -0.0222225    ;-0.498119     
   2.84787313400E+06; -0.0596673    ;-0.493027     
   2.86116904228E+06; -0.0961963    ;-0.484734     
   2.87452702537E+06; -0.132342     ;-0.473443     
   2.88794737307E+06; -0.167841     ;-0.459553     
   2.90143037655E+06; -0.202006     ;-0.442418     
   2.91497632834E+06; -0.234548     ;-0.422873     
   2.92858552231E+06; -0.265585     ;-0.400108     
   2.94225825374E+06; -0.294786     ;-0.375364     
   2.95599481925E+06; -0.321808     ;-0.347944     
   2.96979551687E+06; -0.346568     ;-0.318347     
   2.98366064602E+06; -0.369192     ;-0.28672      
   2.99759050750E+06; -0.388761     ;-0.253373     
   3.01158540354E+06; -0.405096     ;-0.218238     
   3.02564563777E+06; -0.419173     ;-0.181807     
   3.03977151522E+06; -0.429638     ;-0.144422     
   3.05396334236E+06; -0.436892     ;-0.10598      
   3.06822142711E+06; -0.441135     ;-0.0669518    
   3.08254607879E+06; -0.441675     ;-0.0275563    
   3.09693760819E+06; -0.439114     ; 0.0119081    
   3.11139632753E+06; -0.433007     ; 0.0506229    
   3.12592255052E+06; -0.423701     ; 0.0886508    
   3.14051659231E+06; -0.410935     ; 0.126256     
   3.15517876952E+06; -0.395083     ; 0.162417     
   3.16990940026E+06; -0.376066     ; 0.196935     
   3.18470880411E+06; -0.353544     ; 0.229915     
   3.19957730217E+06; -0.328557     ; 0.26105      
   3.21451521700E+06; -0.300853     ; 0.289546     
   3.22952287271E+06; -0.270712     ; 0.315541     
   3.24460059488E+06; -0.238148     ; 0.338576     
   3.25974871064E+06; -0.203502     ; 0.358895     
   3.27496754864E+06; -0.16716      ; 0.376153     
   3.29025743906E+06; -0.129424     ; 0.389869     
   3.30561871362E+06; -0.0907172    ; 0.399794     
   3.32105170559E+06; -0.0509306    ; 0.406221     
   3.33655674981E+06; -0.0107902    ; 0.409337     
   3.35213418266E+06;  0.0298594    ; 0.40857      
   3.36778434211E+06;  0.0699722    ; 0.403997     
   3.38350756769E+06;  0.109678     ; 0.395812     
   3.39930420053E+06;  0.148727     ; 0.383583     
   3.41517458335E+06;  0.186343     ; 0.368206     
   3.43111906047E+06;  0.22237      ; 0.34905      
   3.44713797781E+06;  0.256622     ; 0.326359     
   3.46323168291E+06;  0.288774     ; 0.300543     
   3.47940052493E+06;  0.31802      ; 0.271642     
   3.49564485467E+06;  0.34461      ; 0.240044     
   3.51196502455E+06;  0.368271     ; 0.205981     
   3.52836138867E+06;  0.388459     ; 0.169624     
   3.54483430273E+06;  0.405027     ; 0.131052     
   3.56138412413E+06;  0.417648     ; 0.0914887    
   3.57801121194E+06;  0.426313     ; 0.0502733    
   3.59471592688E+06;  0.431117     ; 0.00835643   
   3.61149863138E+06;  0.431431     ;-0.0339883    
   3.62835968954E+06;  0.427674     ;-0.0761093    
   3.64529946718E+06;  0.419441     ;-0.117951     
   3.66231833181E+06;  0.407188     ;-0.158698     
   3.67941665268E+06;  0.390923     ;-0.198608     
   3.69659480073E+06;  0.370221     ;-0.236229     
   3.71385314866E+06;  0.345939     ;-0.271972     
   3.73119207091E+06;  0.31776      ;-0.304881     
   3.74861194364E+06;  0.286461     ;-0.334925     
   3.76611314479E+06;  0.251879     ;-0.361473     
   3.78369605406E+06;  0.21469      ;-0.384313     
   3.80136105293E+06;  0.174839     ;-0.403341     
   3.81910852465E+06;  0.133506     ;-0.418317     
   3.83693885425E+06;  0.0905643    ;-0.428293     
   3.85485242859E+06;  0.0464933    ;-0.43404      
   3.87284963629E+06;  0.00187388   ;-0.434588     
   3.89093086784E+06; -0.0422617    ;-0.430383     
   3.90909651550E+06; -0.0859627    ;-0.421717     
   3.92734697339E+06; -0.12872      ;-0.407939     
   3.94568263748E+06; -0.169595     ;-0.389859     
   3.96410390555E+06; -0.208482     ;-0.367133     
   3.98261117728E+06; -0.244737     ;-0.340153     
   4.00120485418E+06; -0.277544     ;-0.309504     
   4.01988533967E+06; -0.307114     ;-0.27501      
   4.03865303902E+06; -0.332609     ;-0.23727      
   4.05750835941E+06; -0.353664     ;-0.19704      
   4.07645170992E+06; -0.369942     ;-0.15466      
   4.09548350154E+06; -0.381608     ;-0.110651     
   4.11460414717E+06; -0.387881     ;-0.0656953    
   4.13381406165E+06; -0.389249     ;-0.0198437    
   4.15311366174E+06; -0.385375     ; 0.0255271    
   4.17250336617E+06; -0.376516     ; 0.0702816    
   4.19198359560E+06; -0.362127     ; 0.113858     
   4.21155477268E+06; -0.343094     ; 0.15544      
   4.23121732200E+06; -0.319152     ; 0.194573     
   4.25097167017E+06; -0.290749     ; 0.230794     
   4.27081824576E+06; -0.258457     ; 0.263618     
   4.29075747935E+06; -0.22229      ; 0.292276     
   4.31078980355E+06; -0.183093     ; 0.316736     
   4.33091565296E+06; -0.141331     ; 0.335869     
   4.35113546423E+06; -0.097596     ; 0.350394     
   4.37144967604E+06; -0.0522408    ; 0.359646     
   4.39185872911E+06; -0.00583846   ; 0.363257     
   4.41236306624E+06;  0.0405229    ; 0.361605     
   4.43296313227E+06;  0.086438     ; 0.354077     
   4.45365937415E+06;  0.131431     ; 0.341104     
   4.47445224088E+06;  0.174284     ; 0.32262      
   4.49534218358E+06;  0.214707     ; 0.299144     
   4.51632965547E+06;  0.252312     ; 0.270617     
   4.53741511189E+06;  0.286111     ; 0.237591     
   4.55859901030E+06;  0.315623     ; 0.200915     
   4.57988181030E+06;  0.340267     ; 0.160441     
   4.60126397362E+06;  0.359695     ; 0.117174     
   4.62274596417E+06;  0.373672     ; 0.0715194    
   4.64432824802E+06;  0.381824     ; 0.0244148    
   4.66601129340E+06;  0.383864     ;-0.0234262    
   4.68779557074E+06;  0.379489     ;-0.0715174    
   4.70968155267E+06;  0.369337     ;-0.118916     
   4.73166971401E+06;  0.352787     ;-0.164274     
   4.75376053181E+06;  0.330251     ;-0.207422     
   4.77595448534E+06;  0.302352     ;-0.247495     
   4.79825205612E+06;  0.268951     ;-0.283423     
   4.82065372791E+06;  0.231522     ;-0.314789     
   4.84315998672E+06;  0.189784     ;-0.340867     
   4.86577132084E+06;  0.144964     ;-0.361169     
   4.88848822084E+06;  0.0973818    ;-0.375279     
   4.91131117957E+06;  0.0483985    ;-0.382822     
   4.93424069219E+06; -0.00119958   ;-0.383776     
   4.95727725617E+06; -0.050737     ;-0.377578     
   4.98042137131E+06; -0.0987987    ;-0.364552     
   5.00367353973E+06; -0.14489      ;-0.345303     
   5.02703426589E+06; -0.187657     ;-0.319621     
   5.05050405663E+06; -0.226641     ;-0.287731     
   5.07408342114E+06; -0.260923     ;-0.250847     
   5.09777287099E+06; -0.289463     ;-0.209769     
   5.12157292012E+06; -0.311969     ;-0.164469     
   5.14548408490E+06; -0.327677     ;-0.116885     
   5.16950688410E+06; -0.336542     ;-0.067212     
   5.19364183891E+06; -0.337946     ;-0.0167388    
   5.21788947294E+06; -0.332621     ; 0.0334568    
   5.24225031227E+06; -0.319564     ; 0.0823987    
   5.26672488541E+06; -0.299771     ; 0.128767     
   5.29131372336E+06; -0.273161     ; 0.17192      
   5.31601735960E+06; -0.240757     ; 0.21077      
   5.34083633007E+06; -0.202898     ; 0.244374     
   5.36577117324E+06; -0.160395     ; 0.272458     
   5.39082243010E+06; -0.114182     ; 0.293502     
   5.41599064413E+06; -0.0651264    ; 0.307635     
   5.44127636139E+06; -0.0146396    ; 0.314321     
   5.46668013045E+06;  0.036441     ; 0.313407     
   5.49220250247E+06;  0.0870507    ; 0.304785     
   5.51784403118E+06;  0.13569      ; 0.288581     
   5.54360527288E+06;  0.181425     ; 0.265346     
   5.56948678648E+06;  0.223381     ; 0.235082     
   5.59548913349E+06;  0.260162     ; 0.198892     
   5.62161287805E+06;  0.291068     ; 0.15724      
   5.64785858693E+06;  0.315227     ; 0.1115       
   5.67422682955E+06;  0.332072     ; 0.0621907    
   5.70071817798E+06;  0.341201     ; 0.0104543    
   5.72733320697E+06;  0.342042     ;-0.0416356    
   5.75407249394E+06;  0.334645     ;-0.0936728    
   5.78093661903E+06;  0.31917      ;-0.143953     
   5.80792616507E+06;  0.295949     ;-0.191504     
   5.83504171760E+06;  0.265318     ;-0.234529     
   5.86228386493E+06;  0.228193     ;-0.272346     
   5.88965319808E+06;  0.185262     ;-0.303817     
   5.91715031085E+06;  0.137796     ;-0.327565     
   5.94477579980E+06;  0.0868025    ;-0.343921     
   5.97253026429E+06;  0.0341034    ;-0.351375     
   6.00041430647E+06; -0.0194592    ;-0.3504       
   6.02842853130E+06; -0.0721199    ;-0.340351     
   6.05657354656E+06; -0.122423     ;-0.321682     
   6.08484996288E+06; -0.168981     ;-0.295048     
   6.11325839373E+06; -0.210334     ;-0.261001     
   6.14179945545E+06; -0.245593     ;-0.220454     
   6.17047376725E+06; -0.273584     ;-0.174662     
   6.19928195125E+06; -0.293289     ;-0.124599     
   6.22822463245E+06; -0.304364     ;-0.0720192    
   6.25730243878E+06; -0.30594      ;-0.0181713    
   6.28651600111E+06; -0.298628     ; 0.0351956    
   6.31586595324E+06; -0.282019     ; 0.0862704    
   6.34535293193E+06; -0.256885     ; 0.133976     
   6.37497757692E+06; -0.223709     ; 0.176461     
   6.40474053094E+06; -0.183802     ; 0.212629     
   6.43464243971E+06; -0.137827     ; 0.241182     
   6.46468395198E+06; -0.0872874    ; 0.261252     
   6.49486571950E+06; -0.0342773    ; 0.272188     
   6.52518839710E+06;  0.0202041    ; 0.273043     
   6.55565264265E+06;  0.0738964    ; 0.26463      
   6.58625911707E+06;  0.125496     ; 0.246047     
   6.61700848441E+06;  0.17285      ; 0.21848      
   6.64790141178E+06;  0.21462      ; 0.182672     
   6.67893856942E+06;  0.248992     ; 0.139603     
   6.71012063072E+06;  0.275158     ; 0.0908661    
   6.74144827217E+06;  0.291627     ; 0.0377985    
   6.77292217346E+06;  0.298025     ;-0.0175571    
   6.80454301742E+06;  0.293761     ;-0.0731698    
   6.83631149009E+06;  0.279204     ;-0.127265     
   6.86822828072E+06;  0.254494     ;-0.177725     
   6.90029408174E+06;  0.220632     ;-0.222567     
   6.93250958885E+06;  0.17859      ;-0.260277     
   6.96487550099E+06;  0.130103     ;-0.289055     
   6.99739252035E+06;  0.0770766    ;-0.308292     
   7.03006135241E+06;  0.0210408    ;-0.316914     
   7.06288270594E+06; -0.0353127    ;-0.314559     
   7.09585729302E+06; -0.090471     ;-0.301028     
   7.12898582905E+06; -0.141765     ;-0.277332     
   7.16226903277E+06; -0.187271     ;-0.244142     
   7.19570762629E+06; -0.225619     ;-0.202654     
   7.22930233508E+06; -0.255215     ;-0.154654     
   7.26305388799E+06; -0.274733     ;-0.101751     
   7.29696301729E+06; -0.283462     ;-0.0459195    
   7.33103045865E+06; -0.281022     ; 0.0102071    
   7.36525695118E+06; -0.26749      ; 0.0647661    
   7.39964323746E+06; -0.243509     ; 0.115837     
   7.43419006352E+06; -0.210043     ; 0.160854     
   7.46889817886E+06; -0.167998     ; 0.198484     
   7.50376833650E+06; -0.119225     ; 0.226789     
   7.53880129297E+06; -0.0656946    ; 0.24492      
   7.57399780834E+06; -0.00945341   ; 0.251602     
   7.60935864621E+06;  0.0470699    ; 0.246607     
   7.64488457376E+06;  0.101731     ; 0.229871     
   7.68057636174E+06;  0.151748     ; 0.202359     
   7.71643478451E+06;  0.194879     ; 0.164583     
   7.75246062004E+06;  0.229296     ; 0.118502     
   7.78865464993E+06;  0.25307      ; 0.0660229    
   7.82501765943E+06;  0.265136     ; 0.00923694   
   7.86155043747E+06;  0.264615     ;-0.0487817    
   7.89825377664E+06;  0.251321     ;-0.105618     
   7.93512847324E+06;  0.225759     ;-0.158222     
   7.97217532729E+06;  0.189429     ;-0.204117     
   8.00939514255E+06;  0.143496     ;-0.240682     
   8.04678872653E+06;  0.0904203    ;-0.266194     
   8.08435689049E+06;  0.0330757    ;-0.279119     
   8.12210044951E+06; -0.0260436    ;-0.278736     
   8.16002022245E+06; -0.0830269    ;-0.264975     
   8.19811703201E+06; -0.135954     ;-0.238855     
   8.23639170472E+06; -0.180915     ;-0.201227     
   8.27484507097E+06; -0.216603     ;-0.154723     
   8.31347796503E+06; -0.240348     ;-0.101098     
   8.35229122506E+06; -0.25147      ;-0.0439238    
   8.39128569315E+06; -0.249215     ; 0.0142418    
   8.43046221530E+06; -0.234015     ; 0.0705207    
   8.46982164147E+06; -0.206341     ; 0.121548     
   8.50936482559E+06; -0.167752     ; 0.16489      
   8.54909262557E+06; -0.120243     ; 0.198214     
   8.58900590333E+06; -0.0666709    ; 0.220052     
   8.62910552481E+06; -0.00915511   ; 0.228608     
   8.66939236000E+06;  0.0488158    ; 0.22395      
   8.70986728294E+06;  0.104261     ; 0.205855     
   8.75053117177E+06;  0.154079     ; 0.175321     
   8.79138490870E+06;  0.195749     ; 0.13372      
   8.83242938010E+06;  0.226229     ; 0.0831571    
   8.87366547644E+06;  0.24399      ; 0.026691     
   8.91509409236E+06;  0.247641     ;-0.0327123    
   8.95671612669E+06;  0.236551     ;-0.0914647    
   8.99853248244E+06;  0.211665     ;-0.145976     
   9.04054406684E+06;  0.173692     ;-0.192793     
   9.08275179136E+06;  0.125344     ;-0.228705     
   9.12515657172E+06;  0.0694552    ;-0.251423     
   9.16775932792E+06;  0.00954354   ;-0.259418     
   9.21056098424E+06; -0.0504319    ;-0.251866     
   9.25356246931E+06; -0.106326     ;-0.229557     
   9.29676471606E+06; -0.154867     ;-0.193584     
   9.34016866179E+06; -0.192387     ;-0.146601     
   9.38377524818E+06; -0.216409     ;-0.0919183    
   9.42758542129E+06; -0.225824     ;-0.0329868    
   9.47160013162E+06; -0.219922     ; 0.0260595    
   9.51582033409E+06; -0.199026     ; 0.081653     
   9.56024698809E+06; -0.164795     ; 0.129696     
   9.60488105748E+06; -0.119309     ; 0.167504     
   9.64972351063E+06; -0.0659377    ; 0.19229      
   9.69477532041E+06; -0.00783072   ; 0.202241     
   9.74003746425E+06;  0.0509743    ; 0.196867     
   9.78551092415E+06;  0.106356     ; 0.176237     
   9.83119668668E+06;  0.154482     ; 0.141781     
   9.87709574301E+06;  0.19198      ; 0.0955215    
   9.92320908897E+06;  0.215528     ; 0.0409054    
   9.96953772500E+06;  0.223506     ;-0.0185749    
   1.00160826562E+07;  0.214906     ;-0.0780302    
   1.00628448925E+07;  0.189971     ;-0.132939     
   1.01098254483E+07;  0.150567     ;-0.178698     
   1.01570253429E+07;  0.099619     ;-0.211475     
   1.02044456004E+07;  0.0420236    ;-0.228264     
   1.02520872496E+07; -0.018578     ;-0.227553     
   1.02999513241E+07; -0.076567     ;-0.209447     
   1.03480388622E+07; -0.12606      ;-0.175029     
   1.03963509075E+07; -0.163319     ;-0.12803      
   1.04448885078E+07; -0.185499     ;-0.0726538    
   1.04936527164E+07; -0.190237     ;-0.0129148    
   1.05426445912E+07; -0.177277     ; 0.0452563    
   1.05918651951E+07; -0.148183     ; 0.0973542    
   1.06413155960E+07; -0.10552      ; 0.138554     
   1.06909968667E+07; -0.052439     ; 0.165732     
   1.07409100851E+07;  0.00630065   ; 0.176608     
   1.07910563342E+07;  0.0658783    ; 0.170091     
   1.08414367017E+07;  0.121144     ; 0.146821     
   1.08920522808E+07;  0.167927     ; 0.108684     
   1.09429041697E+07;  0.202108     ; 0.0583438    
   1.09939934715E+07;  0.220041     ; 6.13322E-05  
   1.10453212948E+07;  0.22099      ;-0.0613067    
   1.10968887530E+07;  0.203866     ;-0.120541     
   1.11486969650E+07;  0.170088     ;-0.172371     
   1.12007470548E+07;  0.122236     ;-0.212098     
   1.12530401516E+07;  0.064818     ;-0.235519     
   1.13055773899E+07;  0.00352148   ;-0.241019     
   1.13583599097E+07; -0.057092     ;-0.227426     
   1.14113888560E+07; -0.109602     ;-0.196151     
   1.14646653794E+07; -0.149977     ;-0.150117     
   1.15181906357E+07; -0.173788     ;-0.0946638    
   1.15719657861E+07; -0.178591     ;-0.0347632    
   1.16259919974E+07; -0.164112     ; 0.0230847    
   1.16802704417E+07; -0.132333     ; 0.0728526    
   1.17348022966E+07; -0.0862378    ; 0.1098       
   1.17895887452E+07; -0.0309795    ; 0.12925      
   1.18446309761E+07;  0.0276053    ; 0.130094     
   1.18999301835E+07;  0.0835521    ; 0.111729     
   1.19554875671E+07;  0.130417     ; 0.07594      
   1.20113043323E+07;  0.163299     ; 0.0263753    
   1.20673816901E+07;  0.17813      ;-0.031854     
   1.21237208571E+07;  0.173045     ;-0.0920714    
   1.21803230557E+07;  0.148292     ;-0.147722     
   1.22371895137E+07;  0.106279     ;-0.192496     
   1.22943214651E+07;  0.051273     ;-0.220778     
   1.23517201492E+07; -0.00959782   ;-0.2299       
   1.24093868115E+07; -0.0708651    ;-0.218244     
   1.24673227030E+07; -0.124578     ;-0.187177     
   1.25255290806E+07; -0.164609     ;-0.140196     
   1.25840072073E+07; -0.187269     ;-0.0828652    
   1.26427583516E+07; -0.189463     ;-0.021815     
   1.27017837883E+07; -0.171363     ; 0.0360251    
   1.27610847980E+07; -0.135276     ; 0.0843849    
   1.28206626672E+07; -0.0854219    ; 0.117473     
   1.28805186885E+07; -0.0277818    ; 0.131947     
   1.29406541604E+07;  0.0311886    ; 0.125569     
   1.30010703878E+07;  0.0840452    ; 0.0991852    
   1.30617686813E+07;  0.124497     ; 0.0563067    
   1.31227503579E+07;  0.147319     ; 0.00178935   
   1.31840167405E+07;  0.148655     ;-0.0575665    
   1.32455691585E+07;  0.128597     ;-0.113739     
   1.33074089471E+07;  0.0891214    ;-0.158618     
   1.33695374481E+07;  0.035177     ;-0.185724     
   1.34319560093E+07; -0.0247014    ;-0.190628     
   1.34946659850E+07; -0.0823906    ;-0.172866     
   1.35576687358E+07; -0.128826     ;-0.135461     
   1.36209656284E+07; -0.158632     ;-0.0833152    
   1.36845580362E+07; -0.166522     ;-0.0239838    
   1.37484473388E+07; -0.152491     ; 0.0336815    
   1.38126349224E+07; -0.118767     ; 0.0820983    
   1.38771221795E+07; -0.0699034    ; 0.115161     
   1.39419105092E+07; -0.0123149    ; 0.128568     
   1.40070013172E+07;  0.0460437    ; 0.120385     
   1.40723960157E+07;  0.0973691    ; 0.091774     
   1.41380960233E+07;  0.134966     ; 0.0461717    
   1.42041027656E+07;  0.153299     ;-0.01048      
   1.42704176745E+07;  0.148838     ;-0.0689933    
   1.43370421889E+07;  0.122759     ;-0.121694     
   1.44039777541E+07;  0.0785076    ;-0.159707     
   1.44712258224E+07;  0.0228196    ;-0.177245     
   1.45387878528E+07; -0.0348374    ;-0.170715     
   1.46066653111E+07; -0.0845081    ;-0.141317     
   1.46748596698E+07; -0.116613     ;-0.0939723    
   1.47433724086E+07; -0.12589      ;-0.0387019    
   1.48122050139E+07; -0.111226     ; 0.0153754    
   1.48813589790E+07; -0.0754671    ; 0.0578918    
   1.49508358042E+07; -0.0254149    ; 0.0817621    
   1.50206369970E+07;  0.0302396    ; 0.0829383    
   1.50907640716E+07;  0.0815919    ; 0.0612696    
   1.51612185496E+07;  0.120802     ; 0.0201891    
   1.52320019594E+07;  0.140471     ;-0.0334391    
   1.53031158368E+07;  0.137447     ;-0.0917713    
   1.53745617247E+07;  0.111045     ;-0.144372     
   1.54463411730E+07;  0.0653956    ;-0.182752     
   1.55184557392E+07;  0.00766236   ;-0.199724     
   1.55909069877E+07; -0.0523293    ;-0.191795     
   1.56636964904E+07; -0.103562     ;-0.160098     
   1.57368258266E+07; -0.136613     ;-0.110387     
   1.58102965828E+07; -0.145685     ;-0.0521359    
   1.58841103531E+07; -0.129862     ; 0.00360236   
   1.59582687388E+07; -0.0923454    ; 0.0463354    
   1.60327733489E+07; -0.0410017    ; 0.0689775    
   1.61076257998E+07;  0.0142102    ; 0.0673911    
   1.61828277154E+07;  0.06308      ; 0.0421696    
   1.62583807274E+07;  0.0962166    ;-0.00147681   
   1.63342864749E+07;  0.107168     ;-0.0553545    
   1.64105466046E+07;  0.0935197    ;-0.109056     
   1.64871627712E+07;  0.0573312    ;-0.152084     
   1.65641366369E+07;  0.00502155   ;-0.174846     
   1.66414698715E+07; -0.05276      ;-0.172062     
   1.67191641531E+07; -0.103709     ;-0.143443     
   1.67972211671E+07; -0.136876     ;-0.0950571    
   1.68756426070E+07; -0.144742     ;-0.0368768    
   1.69544301743E+07; -0.126496     ; 0.0180792    
   1.70335855784E+07; -0.0865261    ; 0.0593702    
   1.71131105364E+07; -0.033285     ; 0.078984     
   1.71930067738E+07;  0.0226253    ; 0.0739848    
   1.72732760240E+07;  0.0703929    ; 0.045638     
   1.73539200285E+07;  0.100685     ;-0.000530762  
   1.74349405368E+07;  0.107455     ;-0.0543587    
   1.75163393068E+07;  0.0890768    ;-0.105319     
   1.75981181045E+07;  0.049448     ;-0.141384     
   1.76802787040E+07; -0.00212807   ;-0.153577     
   1.77628228880E+07; -0.0525919    ;-0.13892      
   1.78457524473E+07; -0.0880315    ;-0.100526     
   1.79290691811E+07; -0.0989026    ;-0.0497515    
   1.80127748969E+07; -0.0818401    ;-0.000930286  
   1.80968714109E+07; -0.0421275    ; 0.0325556    
   1.81813605476E+07;  0.00913056   ; 0.0419607    
   1.82662441400E+07;  0.0591834    ; 0.025473     
   1.83515240296E+07;  0.096145     ;-0.0129294    
   1.84372020668E+07;  0.111651     ;-0.0649841    
   1.85232801104E+07;  0.101828     ;-0.11931      
   1.86097600278E+07;  0.0682989    ;-0.163846     
   1.86966436952E+07;  0.0173768    ;-0.18793      
   1.87839329978E+07; -0.038741     ;-0.185477     
   1.88716298293E+07; -0.0857789    ;-0.156337     
   1.89597360923E+07; -0.111256     ;-0.108073     
   1.90482536983E+07; -0.10822      ;-0.0549856    
   1.91371845678E+07; -0.0786883    ;-0.0126791    
   1.92265306302E+07; -0.0324713    ; 0.00674936   
   1.93162938239E+07;  0.0165897    ;-0.000558449  
   1.94064760964E+07;  0.0543009    ;-0.0322083    
   1.94970794042E+07;  0.070818     ;-0.0790535    
   1.95881057130E+07;  0.0614669    ;-0.128609     
   1.96795569978E+07;  0.0280493    ;-0.167982     
   1.97714352425E+07; -0.0214969    ;-0.185258     
   1.98637424406E+07; -0.0740549    ;-0.174817     
   1.99564805947E+07; -0.113774     ;-0.138907     
   2.00496517169E+07; -0.128357     ;-0.0871038    
   2.01432578284E+07; -0.113383     ;-0.0360662    
   2.02373009602E+07; -0.0740231    ;-0.00134755   
   2.03317831526E+07; -0.023074     ; 0.00702871   
   2.04267064554E+07;  0.02394      ;-0.0120991    
   2.05220729281E+07;  0.0545252    ;-0.0528347    
   2.06178846397E+07;  0.0604081    ;-0.103313     
   2.07141436689E+07;  0.0399736    ;-0.150202     
   2.08108521040E+07; -0.00198043   ;-0.180884     
   2.09080120433E+07; -0.0530485    ;-0.185713     
   2.10056255947E+07; -0.099522     ;-0.162395     
   2.11036948759E+07; -0.125604     ;-0.117928     
   2.12022220146E+07; -0.121274     ;-0.0682796    
   2.13012091485E+07; -0.0902774    ;-0.031233     
   2.14006584251E+07; -0.04446      ;-0.0190248    
   2.15005720021E+07; -0.00092877   ;-0.0351667    
   2.16009520471E+07;  0.025708     ;-0.0725925    
   2.17018007379E+07;  0.0274625    ;-0.118673     
   2.18031202625E+07;  0.00345075   ;-0.158575     
   2.19049128191E+07; -0.0390125    ;-0.179007     
   2.20071806162E+07; -0.0861529    ;-0.172193     
   2.21099258724E+07; -0.12082      ;-0.139135     
   2.22131508170E+07; -0.128984     ;-0.092545     
   2.23168576894E+07; -0.107632     ;-0.0508484    
   2.24210487397E+07; -0.0656223    ;-0.0311999    
   2.25257262283E+07; -0.0204136    ;-0.0411614    
   2.26308924263E+07;  0.0101287    ;-0.0753808    
   2.27365496153E+07;  0.0163697    ;-0.120887     
   2.28427000876E+07; -0.00320104   ;-0.162575     
   2.29493461463E+07; -0.0422693    ;-0.187261     
   2.30564901050E+07; -0.0887652    ;-0.185698     
   2.31641342883E+07; -0.125212     ;-0.157843     
   2.32722810316E+07; -0.137331     ;-0.114599     
   2.33809326812E+07; -0.119125     ;-0.0743134    
   2.34900915945E+07; -0.0801828    ;-0.0559617    
   2.35997601396E+07; -0.038426     ;-0.0672575    
   2.37099406959E+07; -0.012548     ;-0.102054     
   2.38206356539E+07; -0.0121917    ;-0.146398     
   2.39318474150E+07; -0.0363154    ;-0.183954     
   2.40435783922E+07; -0.0776936    ;-0.202568     
   2.41558310095E+07; -0.121702     ;-0.19453      
   2.42686077023E+07; -0.151968     ;-0.163656     
   2.43819109173E+07; -0.155979     ;-0.122636     
   2.44957431128E+07; -0.131902     ;-0.0916812    
   2.46101067583E+07; -0.0948875    ;-0.0872119    
   2.47250043351E+07; -0.0650593    ;-0.110439     
   2.48404383360E+07; -0.0585888    ;-0.148777     
   2.49564112653E+07; -0.0776489    ;-0.184876     
   2.50729256392E+07; -0.11537      ;-0.204404     
   2.51899839856E+07; -0.159287     ;-0.198937     
   2.53075888439E+07; -0.192227     ;-0.169616     
   2.54257427659E+07; -0.200146     ;-0.126707     
   2.55444483149E+07; -0.179807     ;-0.0908092    
   2.56637080662E+07; -0.141814     ;-0.0795935    
   2.57835246073E+07; -0.108202     ;-0.0977894    
   2.59039005378E+07; -0.0963913    ;-0.134183     
   2.60248384692E+07; -0.111186     ;-0.169891     
   2.61463410253E+07; -0.145448     ;-0.189969     
   2.62684108422E+07; -0.184831     ;-0.185778     
   2.63910505683E+07; -0.213394     ;-0.158876     
   2.65142628644E+07; -0.217486     ;-0.12153      
   2.66380504035E+07; -0.195362     ;-0.0940152    
   2.67624158715E+07; -0.161844     ;-0.0928382    
   2.68873619663E+07; -0.138465     ;-0.117358     
   2.70128913989E+07; -0.139737     ;-0.153334     
   2.71390068926E+07; -0.16426      ;-0.181956     
   2.72657111837E+07; -0.202359     ;-0.190703     
   2.73930070210E+07; -0.238388     ;-0.175895     
   2.75208971662E+07; -0.257234     ;-0.14372      
   2.76493843942E+07; -0.250688     ;-0.110753     
   2.77784714923E+07; -0.224871     ;-0.0963059    
   2.79081612614E+07; -0.200437     ;-0.108831     
   2.80384565151E+07; -0.195758     ;-0.138108     
   2.81693600801E+07; -0.215487     ;-0.165096     
   2.83008747966E+07; -0.250724     ;-0.174994     
   2.84330035179E+07; -0.286976     ;-0.162593     
   2.85657491105E+07; -0.309068     ;-0.131369     
   2.86991144545E+07; -0.307352     ;-0.0963454    
   2.88331024432E+07; -0.284438     ;-0.0760775    
   2.89677159837E+07; -0.25892      ;-0.082056     
   2.91029579965E+07; -0.252073     ;-0.107249     
   2.92388314157E+07; -0.270185     ;-0.130377     
   2.93753391892E+07; -0.303134     ;-0.13619      
   2.95124842786E+07; -0.335523     ;-0.120078     
   2.96502696593E+07; -0.352458     ;-0.0875699    
   2.97886983207E+07; -0.34608      ;-0.05495      
   2.99277732661E+07; -0.323362     ;-0.0406603    
   3.00674975128E+07; -0.303846     ;-0.0509079    
   3.02078740922E+07; -0.305179     ;-0.0738403    
   3.03489060499E+07; -0.328347     ;-0.0887466    
   3.04905964456E+07; -0.358999     ;-0.0838872    
   3.06329483533E+07; -0.381573     ;-0.0598463    
   3.07759648616E+07; -0.384925     ;-0.0281009    
   3.09196490732E+07; -0.367906     ;-0.00568414   
   3.10640041054E+07; -0.344837     ;-0.00628614   
   3.12090330902E+07; -0.337229     ;-0.0258797    
   3.13547391740E+07; -0.353455     ;-0.0455004    
   3.15011255179E+07; -0.383679     ;-0.0484553    
   3.16481952980E+07; -0.413338     ;-0.0311737    
   3.17959517050E+07; -0.429047     ; 0.000411101  
   3.19443979446E+07; -0.424902     ; 0.0323937    
   3.20935372374E+07; -0.405598     ; 0.0491915    
   3.22433728190E+07; -0.389709     ; 0.0444396    
   3.23939079403E+07; -0.393662     ; 0.0302975    
   3.25451458671E+07; -0.414868     ; 0.0263189    
   3.26970898808E+07; -0.438728     ; 0.0416685    
   3.28497432778E+07; -0.4502       ; 0.0698612    
   3.30031093699E+07; -0.443956     ; 0.0976365    
   3.31571914847E+07; -0.426101     ; 0.111363     
   3.33119929650E+07; -0.41387      ; 0.106123     
   3.34675171693E+07; -0.42109      ; 0.0965847    
   3.36237674717E+07; -0.442087     ; 0.0994065    
   3.37807472624E+07; -0.461123     ; 0.119786     
   3.39384599469E+07; -0.466628     ; 0.15142      
   3.40969089470E+07; -0.454267     ; 0.179408     
   3.42560977004E+07; -0.433013     ; 0.191287     
   3.44160296607E+07; -0.420241     ; 0.185454     
   3.45767082978E+07; -0.426482     ; 0.178293     
   3.47381370976E+07; -0.443639     ; 0.185501     
   3.49003195625E+07; -0.455202     ; 0.208317     
   3.50632592111E+07; -0.45145      ; 0.236837     
   3.52269595786E+07; -0.432647     ; 0.255892     
   3.53914242164E+07; -0.413329     ; 0.256574     
   3.55566566927E+07; -0.409785     ; 0.246318     
   3.57226605924E+07; -0.423317     ; 0.243104     
   3.58894395170E+07; -0.43985      ; 0.256685     
   3.60569970849E+07; -0.446025     ; 0.281669     
   3.62253369313E+07; -0.438346     ; 0.306387     
   3.63944627086E+07; -0.423223     ; 0.318509     
   3.65643780859E+07; -0.415735     ; 0.318904     
   3.67350867496E+07; -0.42149      ; 0.321        
   3.69065924035E+07; -0.432011     ; 0.335958     
   3.70788987684E+07; -0.433836     ; 0.361171     
   3.72520095827E+07; -0.423319     ; 0.385453     
   3.74259286020E+07; -0.404882     ; 0.399827     
   3.76006595997E+07; -0.392113     ; 0.401316     
   3.77762063666E+07; -0.392726     ; 0.402441     
   3.79525727113E+07; -0.399757     ; 0.414627     
   3.81297624603E+07; -0.400142     ; 0.43801      
   3.83077794577E+07; -0.389034     ; 0.46221      
   3.84866275658E+07; -0.369948     ; 0.478175     
   3.86663106647E+07; -0.35262      ; 0.481865     
   3.88468326529E+07; -0.347658     ; 0.482995     
   3.90281974467E+07; -0.349792     ; 0.494143     
   3.92104089811E+07; -0.346213     ; 0.513354     
   3.93934712093E+07; -0.332559     ; 0.533704     
   3.95773881028E+07; -0.31209      ; 0.546314     
   3.97621636519E+07; -0.29536      ; 0.547906     
   3.99478018654E+07; -0.290063     ; 0.549144     
   4.01343067708E+07; -0.289542     ; 0.559499     
   4.03216824145E+07; -0.283178     ; 0.577822     
   4.05099328617E+07; -0.267419     ; 0.595864     
   4.06990621966E+07; -0.248031     ; 0.605244     
   4.08890745225E+07; -0.233989     ; 0.607448     
   4.10799739618E+07; -0.228513     ; 0.614053     
   4.12717646562E+07; -0.221245     ; 0.627432     
   4.14644507667E+07; -0.206953     ; 0.644212     
   4.16580364737E+07; -0.186795     ; 0.656484     
   4.18525259773E+07; -0.167043     ; 0.66098      
   4.20479234969E+07; -0.155926     ; 0.663217     
   4.22442332719E+07; -0.145177     ; 0.672639     
   4.24414595613E+07; -0.13016      ; 0.686695     
   4.26396066441E+07; -0.108306     ; 0.696933     
   4.28386788191E+07; -0.0846695    ; 0.699448     
   4.30386804054E+07; -0.0674828    ; 0.696633     
   4.32396157421E+07; -0.0587555    ; 0.697592     
   4.34414891886E+07; -0.0485319    ; 0.706733     
   4.36443051248E+07; -0.0308978    ; 0.718016     
   4.38480679508E+07; -0.00801519   ; 0.724139     
   4.40527820874E+07;  0.0137811    ; 0.724114     
   4.42584519759E+07;  0.0288449    ; 0.721359     
   4.44650820786E+07;  0.0410937    ; 0.724308     
   4.46726768783E+07;  0.0575094    ; 0.730718     
   4.48812408790E+07;  0.0786746    ; 0.734719     
   4.50907786056E+07;  0.0988674    ; 0.732938     
   4.53012946042E+07;  0.114947     ; 0.730527     
   4.55127934419E+07;  0.127917     ; 0.732062     
   4.57252797075E+07;  0.14518      ; 0.736354     
   4.59387580110E+07;  0.166869     ; 0.738429     
   4.61532329838E+07;  0.188007     ; 0.736163     
   4.63687092791E+07;  0.205265     ; 0.731196     
   4.65851915719E+07;  0.220859     ; 0.731128     
   4.68026845588E+07;  0.239705     ; 0.732348     
   4.70211929585E+07;  0.262        ; 0.730886     
   4.72407215117E+07;  0.284352     ; 0.725592     
   4.74612749811E+07;  0.302887     ; 0.717671     
   4.76828581519E+07;  0.318818     ; 0.712417     
   4.79054758313E+07;  0.336518     ; 0.709601     
   4.81291328493E+07;  0.358093     ; 0.704894     
   4.83538340582E+07;  0.378239     ; 0.696034     
   4.85795843329E+07;  0.395815     ; 0.68599      
   4.88063885715E+07;  0.410825     ; 0.678076     
   4.90342516943E+07;  0.42852      ; 0.672592     
   4.92631786452E+07;  0.447898     ; 0.664437     
   4.94931743908E+07;  0.466106     ; 0.652932     
   4.97242439210E+07;  0.48128      ; 0.642209     
   4.99563922490E+07;  0.496469     ; 0.634359     
   5.01896244114E+07;  0.515288     ; 0.626447     
   5.04239454683E+07;  0.534691     ; 0.614358     
   5.06593605035E+07;  0.551505     ; 0.599782     
   5.08958746244E+07;  0.565252     ; 0.586283     
   5.11334929623E+07;  0.57932      ; 0.57557      
   5.13722206726E+07;  0.596096     ; 0.564153     
   5.16120629345E+07;  0.612419     ; 0.549706     
   5.18530249516E+07;  0.626604     ; 0.534805     
   5.20951119517E+07;  0.639825     ; 0.52191      
   5.23383291871E+07;  0.654982     ; 0.508504     
   5.25826819344E+07;  0.670516     ; 0.49328      
   5.28281754951E+07;  0.684519     ; 0.47607      
   5.30748151953E+07;  0.695556     ; 0.460052     
   5.33226063859E+07;  0.707935     ; 0.44524      
   5.35715544431E+07;  0.721934     ; 0.429432     
   5.38216647678E+07;  0.734641     ; 0.410907     
   5.40729427863E+07;  0.745103     ; 0.392714     
   5.43253939503E+07;  0.756245     ; 0.376425     
   5.45790237369E+07;  0.768273     ; 0.358498     
   5.48338376487E+07;  0.779526     ; 0.338699     
   5.50898412140E+07;  0.788408     ; 0.318858     
   5.53470399871E+07;  0.796808     ; 0.300338     
   5.56054395479E+07;  0.806148     ; 0.282192     
   5.58650455027E+07;  0.81518      ; 0.261988     
   5.61258634837E+07;  0.823059     ; 0.240512     
   5.63878991496E+07;  0.829345     ; 0.220688     
   5.66511581853E+07;  0.836601     ; 0.200914     
   5.69156463025E+07;  0.844163     ; 0.179964     
   5.71813692393E+07;  0.849783     ; 0.157716     
   5.74483327608E+07;  0.853675     ; 0.136663     
   5.77165426589E+07;  0.859167     ; 0.115782     
   5.79860047526E+07;  0.86371      ; 0.0941877    
   5.82567248881E+07;  0.867302     ; 0.0713193    
   5.85287089388E+07;  0.86987      ; 0.0492479    
   5.88019628055E+07;  0.872627     ; 0.0276835    
   5.90764924166E+07;  0.874129     ; 0.00556274   
   5.93523037283E+07;  0.875678     ;-0.0174435    
   5.96294027244E+07;  0.876469     ;-0.0404552    
   5.99077954168E+07;  0.876956     ;-0.0633499    
   6.01874878453E+07;  0.87657      ;-0.0866874    
   6.04684860782E+07;  0.875582     ;-0.109686     
   6.07507962117E+07;  0.872858     ;-0.133205     
   6.10344243707E+07;  0.870475     ;-0.156099     
   6.13193767089E+07;  0.867837     ;-0.17909      
   6.16056594083E+07;  0.863971     ;-0.203054     
   6.18932786801E+07;  0.859009     ;-0.225885     
   6.21822407643E+07;  0.854101     ;-0.249348     
   6.24725519302E+07;  0.848352     ;-0.272674     
   6.27642184762E+07;  0.841105     ;-0.296079     
   6.30572467302E+07;  0.833302     ;-0.318909     
   6.33516430496E+07;  0.824997     ;-0.341515     
   6.36474138216E+07;  0.816671     ;-0.362708     
   6.39445654630E+07;  0.806674     ;-0.386597     
   6.42431044208E+07;  0.796498     ;-0.408408     
   6.45430371719E+07;  0.785871     ;-0.429933     
   6.48443702236E+07;  0.7749       ;-0.452451     
   6.51471101134E+07;  0.762193     ;-0.473775     
   6.54512634096E+07;  0.750845     ;-0.49466      
   6.57568367108E+07;  0.736846     ;-0.516052     
   6.60638366467E+07;  0.722647     ;-0.536946     
   6.63722698778E+07;  0.708212     ;-0.557385     
   6.66821430959E+07;  0.692771     ;-0.577487     
   6.69934630236E+07;  0.676693     ;-0.597551     
   6.73062364155E+07;  0.659953     ;-0.616629     
   6.76204700572E+07;  0.642886     ;-0.635188     
   6.79361707662E+07;  0.624901     ;-0.653827     
   6.82533453919E+07;  0.605721     ;-0.671783     
   6.85720008156E+07;  0.586955     ;-0.689445     
   6.88921439506E+07;  0.567237     ;-0.706164     
   6.92137817427E+07;  0.547458     ;-0.72342      
   6.95369211701E+07;  0.525916     ;-0.739243     
   6.98615692434E+07;  0.504165     ;-0.754366     
   7.01877330060E+07;  0.481959     ;-0.769224     
   7.05154195343E+07;  0.459258     ;-0.783574     
   7.08446359376E+07;  0.436215     ;-0.79637      
   7.11753893586E+07;  0.412611     ;-0.809613     
   7.15076869730E+07;  0.388566     ;-0.821933     
   7.18415359903E+07;  0.364012     ;-0.833992     
   7.21769436536E+07;  0.339438     ;-0.844126     
   7.25139172397E+07;  0.313607     ;-0.854662     
   7.28524640594E+07;  0.287681     ;-0.863707     
   7.31925914578E+07;  0.260973     ;-0.872021     
   7.35343068141E+07;  0.23356      ;-0.879807     
   7.38776175420E+07;  0.206841     ;-0.886241     
   7.42225310900E+07;  0.179514     ;-0.892715     
   7.45690549410E+07;  0.151214     ;-0.897984     
   7.49171966131E+07;  0.123471     ;-0.902451     
   7.52669636596E+07;  0.0945097    ;-0.905641     
   7.56183636687E+07;  0.066222     ;-0.908372     
   7.59714042643E+07;  0.0366424    ;-0.909332     
   7.63260931059E+07;  0.00868129   ;-0.909782     
   7.66824378886E+07; -0.0198402    ;-0.909579     
   7.70404463437E+07; -0.0496807    ;-0.90847      
   7.74001262381E+07; -0.0794021    ;-0.906472     
   7.77614853756E+07; -0.107655     ;-0.902779     
   7.81245315959E+07; -0.136974     ;-0.898234     
   7.84892727755E+07; -0.166824     ;-0.89359      
   7.88557168278E+07; -0.195699     ;-0.887073     
   7.92238717030E+07; -0.22397      ;-0.879619     
   7.95937453884E+07; -0.253366     ;-0.870768     
   7.99653459087E+07; -0.282405     ;-0.861422     
   8.03386813259E+07; -0.310817     ;-0.851155     
   8.07137597398E+07; -0.339571     ;-0.839819     
   8.10905892880E+07; -0.367332     ;-0.82678      
   8.14691781460E+07; -0.395208     ;-0.813216     
   8.18495345275E+07; -0.422359     ;-0.798359     
   8.22316666845E+07; -0.449098     ;-0.782423     
   8.26155829078E+07; -0.473954     ;-0.766438     
   8.30012915265E+07; -0.49893      ;-0.749181     
   8.33888009088E+07; -0.525706     ;-0.731626     
   8.37781194620E+07; -0.550411     ;-0.710898     
   8.41692556327E+07; -0.57405      ;-0.69119      
   8.45622179067E+07; -0.59758      ;-0.669622     
   8.49570148096E+07; -0.618617     ;-0.647301     
   8.53536549067E+07; -0.641333     ;-0.624405     
   8.57521468035E+07; -0.662073     ;-0.600421     
   8.61524991454E+07; -0.681803     ;-0.575402     
   8.65547206183E+07; -0.700754     ;-0.549774     
   8.69588199487E+07; -0.718831     ;-0.524032     
   8.73648059037E+07; -0.736653     ;-0.496968     
   8.77726872915E+07; -0.753355     ;-0.470222     
   8.81824729612E+07; -0.768788     ;-0.439986     
   8.85941718035E+07; -0.782638     ;-0.410353     
   8.90077927504E+07; -0.795092     ;-0.381055     
   8.94233447757E+07; -0.807491     ;-0.350721     
   8.98408368949E+07; -0.817555     ;-0.320451     
   9.02602781660E+07; -0.828354     ;-0.288933     
   9.06816776888E+07; -0.835906     ;-0.256863     
   9.11050446059E+07; -0.842583     ;-0.225058     
   9.15303881026E+07; -0.846683     ;-0.193707     
   9.19577174068E+07; -0.850923     ;-0.162803     
   9.23870417898E+07; -0.8543       ;-0.132219     
   9.28183705661E+07; -0.856797     ;-0.100408     
   9.32517130935E+07; -0.8585       ;-0.0700461    
   9.36870787737E+07; -0.860085     ;-0.0371579    
   9.41244770522E+07; -0.859969     ;-0.00626322   
   9.45639174187E+07; -0.860216     ; 0.0254472    
   9.50054094070E+07; -0.859367     ; 0.0602209    
   9.54489625957E+07; -0.853185     ; 0.0957326    
   9.58945866078E+07; -0.845801     ; 0.127593     
   9.63422911115E+07; -0.838039     ; 0.158978     
   9.67920858199E+07; -0.828849     ; 0.189649     
   9.72439804917E+07; -0.820492     ; 0.219659     
   9.76979849309E+07; -0.810009     ; 0.25168      
   9.81541089876E+07; -0.798836     ; 0.282616     
   9.86123625575E+07; -0.786255     ; 0.313555     
   9.90727555827E+07; -0.773152     ; 0.344002     
   9.95352980519E+07; -0.754703     ; 0.373802     
   1.00000000000E+08; -0.739352     ; 0.400405     
