
  ZVR, 2.05

  stimulus-start        ; stimulus-stop       ; stimulus-unit       ; nof-points; parameter-type; impedance-ohm
  9.00000000000E+03     ; 1.00000000000E+08   ; Hz                  ; 2001      ; S11           ; 50        

  conversion            ; time-domain         ; data-format         ; param-unit; smoothing     ; trace-math
  S                     ; none                ; RI                  ; none      ; none          ; none

  sweep-mode-type       ; notlinear-meas-mode 
  FUNDAMENTAL           ; none                


  freq              ;  reS11        ; imS11         
   9.00000000000E+03;  0.848598     ; 0.402866     
   9.04201843582E+03;  0.849738     ; 0.403678     
   9.08423304375E+03;  0.852833     ; 0.403462     
   9.12664473965E+03;  0.855775     ; 0.403489     
   9.16925444368E+03;  0.852583     ; 0.403509     
   9.21206308028E+03;  0.85503      ; 0.398459     
   9.25507157820E+03;  0.857154     ; 0.394226     
   9.29828087055E+03;  0.857445     ; 0.392801     
   9.34169189477E+03;  0.859441     ; 0.39094      
   9.38530559270E+03;  0.860901     ; 0.389412     
   9.42912291056E+03;  0.861801     ; 0.387353     
   9.47314479899E+03;  0.862243     ; 0.386445     
   9.51737221307E+03;  0.862488     ; 0.384672     
   9.56180611235E+03;  0.864718     ; 0.382482     
   9.60644746085E+03;  0.864485     ; 0.381796     
   9.65129722708E+03;  0.865906     ; 0.379213     
   9.69635638410E+03;  0.867391     ; 0.37717      
   9.74162590948E+03;  0.868342     ; 0.375273     
   9.78710678538E+03;  0.868827     ; 0.374211     
   9.83279999853E+03;  0.870446     ; 0.373402     
   9.87870654027E+03;  0.872934     ; 0.371327     
   9.92482740658E+03;  0.873337     ; 0.369312     
   9.97116359807E+03;  0.874647     ; 0.366813     
   1.00177161200E+04;  0.875688     ; 0.365663     
   1.00644859825E+04;  0.876753     ; 0.363582     
   1.01114742001E+04;  0.878432     ; 0.362805     
   1.01586817922E+04;  0.879551     ; 0.360746     
   1.02061097832E+04;  0.87956      ; 0.359295     
   1.02537592020E+04;  0.881043     ; 0.357225     
   1.03016310823E+04;  0.881875     ; 0.355217     
   1.03497264628E+04;  0.883034     ; 0.353791     
   1.03980463870E+04;  0.88357      ; 0.35195      
   1.04465919031E+04;  0.884539     ; 0.350636     
   1.04953640643E+04;  0.885922     ; 0.349098     
   1.05443639289E+04;  0.886087     ; 0.346956     
   1.05935925599E+04;  0.886947     ; 0.345665     
   1.06430510254E+04;  0.890444     ; 0.345695     
   1.06927403983E+04;  0.891846     ; 0.344237     
   1.07426617568E+04;  0.891067     ; 0.341362     
   1.07928161838E+04;  0.891588     ; 0.338392     
   1.08432047676E+04;  0.893104     ; 0.336232     
   1.08938286014E+04;  0.893889     ; 0.334292     
   1.09446887834E+04;  0.894788     ; 0.333171     
   1.09957864171E+04;  0.89589      ; 0.33098      
   1.10471226110E+04;  0.89712      ; 0.329669     
   1.10986984791E+04;  0.897877     ; 0.327815     
   1.11505151402E+04;  0.898906     ; 0.32621      
   1.12025737185E+04;  0.900163     ; 0.324223     
   1.12548753435E+04;  0.900286     ; 0.322822     
   1.13074211498E+04;  0.901545     ; 0.321029     
   1.13602122776E+04;  0.902378     ; 0.319451     
   1.14132498721E+04;  0.9033       ; 0.317525     
   1.14665350840E+04;  0.904507     ; 0.31583      
   1.15200690694E+04;  0.905182     ; 0.314055     
   1.15738529897E+04;  0.906024     ; 0.31254      
   1.16278880118E+04;  0.90688      ; 0.310646     
   1.16821753081E+04;  0.907816     ; 0.30895      
   1.17367160562E+04;  0.909137     ; 0.307185     
   1.17915114396E+04;  0.909731     ; 0.305685     
   1.18465626470E+04;  0.910572     ; 0.304421     
   1.19018708728E+04;  0.911604     ; 0.302204     
   1.19574373170E+04;  0.912047     ; 0.300369     
   1.20132631851E+04;  0.91345      ; 0.298833     
   1.20693496882E+04;  0.913743     ; 0.297226     
   1.21256980432E+04;  0.914669     ; 0.29516      
   1.21823094727E+04;  0.915345     ; 0.29371      
   1.22391852047E+04;  0.916241     ; 0.292097     
   1.22963264734E+04;  0.917483     ; 0.290011     
   1.23537345184E+04;  0.918151     ; 0.288352     
   1.24114105852E+04;  0.919264     ; 0.286572     
   1.24693559251E+04;  0.919855     ; 0.285103     
   1.25275717953E+04;  0.920603     ; 0.283419     
   1.25860594587E+04;  0.921517     ; 0.281718     
   1.26448201845E+04;  0.922184     ; 0.279979     
   1.27038552473E+04;  0.923119     ; 0.278221     
   1.27631659280E+04;  0.923775     ; 0.276578     
   1.28227535134E+04;  0.924526     ; 0.274891     
   1.28826192962E+04;  0.92539      ; 0.273113     
   1.29427645754E+04;  0.926089     ; 0.271469     
   1.30031906557E+04;  0.926527     ; 0.269782     
   1.30638988481E+04;  0.927628     ; 0.267947     
   1.31248904698E+04;  0.928493     ; 0.266589     
   1.31861668440E+04;  0.929244     ; 0.26469      
   1.32477293002E+04;  0.92973      ; 0.263115     
   1.33095791739E+04;  0.930704     ; 0.261278     
   1.33717178070E+04;  0.931264     ; 0.259614     
   1.34341465477E+04;  0.932077     ; 0.257939     
   1.34968667505E+04;  0.932921     ; 0.256342     
   1.35598797759E+04;  0.933629     ; 0.254537     
   1.36231869913E+04;  0.935504     ; 0.253673     
   1.36867897700E+04;  0.938164     ; 0.252534     
   1.37506894919E+04;  0.940033     ; 0.251401     
   1.38148875435E+04;  0.93754      ; 0.249135     
   1.38793853174E+04;  0.93805      ; 0.247021     
   1.39441842131E+04;  0.939231     ; 0.244684     
   1.40092856364E+04;  0.939231     ; 0.242577     
   1.40746909997E+04;  0.940009     ; 0.241302     
   1.41404017219E+04;  0.940665     ; 0.239746     
   1.42064192289E+04;  0.941449     ; 0.237711     
   1.42727449527E+04;  0.941955     ; 0.236021     
   1.43393803325E+04;  0.94272      ; 0.234698     
   1.44063268138E+04;  0.943533     ; 0.233064     
   1.44735858492E+04;  0.943992     ; 0.230962     
   1.45411588979E+04;  0.944064     ; 0.229769     
   1.46090474259E+04;  0.945687     ; 0.228112     
   1.46772529061E+04;  0.946179     ; 0.225995     
   1.47457768182E+04;  0.946431     ; 0.225381     
   1.48146206490E+04;  0.94701      ; 0.222785     
   1.48837858920E+04;  0.947513     ; 0.22088      
   1.49532740478E+04;  0.948415     ; 0.219233     
   1.50230866240E+04;  0.948749     ; 0.217209     
   1.50932251352E+04;  0.949684     ; 0.216051     
   1.51636911032E+04;  0.950036     ; 0.21443      
   1.52344860567E+04;  0.950169     ; 0.213804     
   1.53056115317E+04;  0.95126      ; 0.212253     
   1.53770690712E+04;  0.952388     ; 0.20991      
   1.54488602256E+04;  0.952876     ; 0.208326     
   1.55209865525E+04;  0.953519     ; 0.206147     
   1.55934496167E+04;  0.953778     ; 0.204382     
   1.56662509902E+04;  0.953645     ; 0.20293      
   1.57393922526E+04;  0.953726     ; 0.201922     
   1.58128749908E+04;  0.954642     ; 0.20025      
   1.58867007989E+04;  0.956156     ; 0.198159     
   1.59608712786E+04;  0.95646      ; 0.196644     
   1.60353880393E+04;  0.956936     ; 0.19489      
   1.61102526974E+04;  0.957371     ; 0.193242     
   1.61854668773E+04;  0.957957     ; 0.191524     
   1.62610322108E+04;  0.957625     ; 0.18988      
   1.63369503372E+04;  0.95833      ; 0.188324     
   1.64132229038E+04;  0.959053     ; 0.18729      
   1.64898515653E+04;  0.958732     ; 0.185011     
   1.65668379841E+04;  0.959742     ; 0.183889     
   1.66441838307E+04;  0.960923     ; 0.181714     
   1.67218907829E+04;  0.96303      ; 0.181043     
   1.67999605267E+04;  0.96536      ; 0.183061     
   1.68783947560E+04;  0.962499     ; 0.178389     
   1.69571951723E+04;  0.962376     ; 0.174941     
   1.70363634853E+04;  0.963031     ; 0.173448     
   1.71159014126E+04;  0.962508     ; 0.171859     
   1.71958106798E+04;  0.963224     ; 0.170036     
   1.72760930207E+04;  0.963556     ; 0.168705     
   1.73567501769E+04;  0.963821     ; 0.167029     
   1.74377838984E+04;  0.964387     ; 0.165328     
   1.75191959432E+04;  0.965058     ; 0.16419      
   1.76009880777E+04;  0.965739     ; 0.16213      
   1.76831620763E+04;  0.966063     ; 0.160494     
   1.77657197220E+04;  0.966298     ; 0.158571     
   1.78486628058E+04;  0.966334     ; 0.156998     
   1.79319931272E+04;  0.966945     ; 0.155696     
   1.80157124941E+04;  0.967426     ; 0.154221     
   1.80998227229E+04;  0.96796      ; 0.152671     
   1.81843256384E+04;  0.968704     ; 0.150517     
   1.82692230739E+04;  0.968947     ; 0.146985     
   1.83545168714E+04;  0.969666     ; 0.146034     
   1.84402088813E+04;  0.970099     ; 0.145739     
   1.85263009628E+04;  0.969491     ; 0.145301     
   1.86127949837E+04;  0.970082     ; 0.142933     
   1.86996928205E+04;  0.970758     ; 0.141189     
   1.87869963586E+04;  0.971041     ; 0.139861     
   1.88747074920E+04;  0.97126      ; 0.138065     
   1.89628281237E+04;  0.971761     ; 0.136497     
   1.90513601656E+04;  0.972325     ; 0.134828     
   1.91403055383E+04;  0.972628     ; 0.133465     
   1.92296661716E+04;  0.972902     ; 0.131638     
   1.93194440042E+04;  0.973323     ; 0.130174     
   1.94096409840E+04;  0.973974     ; 0.128492     
   1.95002590678E+04;  0.974021     ; 0.127164     
   1.95913002216E+04;  0.974491     ; 0.125218     
   1.96827664206E+04;  0.974539     ; 0.123477     
   1.97746596492E+04;  0.974503     ; 0.122027     
   1.98669819012E+04;  0.975201     ; 0.120458     
   1.99597351794E+04;  0.976024     ; 0.119127     
   2.00529214962E+04;  0.985985     ; 0.110216     
   2.01465428734E+04;  0.985514     ; 0.10758      
   2.02406013422E+04;  0.985998     ; 0.105997     
   2.03350989431E+04;  0.986095     ; 0.104786     
   2.04300377265E+04;  0.986471     ; 0.102829     
   2.05254197519E+04;  0.986895     ; 0.101705     
   2.06212470888E+04;  0.986978     ; 0.0997965    
   2.07175218163E+04;  0.987367     ; 0.0982711    
   2.08142460231E+04;  0.987606     ; 0.0968437    
   2.09114218076E+04;  0.987896     ; 0.0950718    
   2.10090512782E+04;  0.988175     ; 0.093654     
   2.11071365529E+04;  0.988273     ; 0.0920492    
   2.12056797599E+04;  0.988701     ; 0.0905497    
   2.13046830370E+04;  0.98846      ; 0.0890805    
   2.14041485322E+04;  0.988871     ; 0.0881014    
   2.15040784035E+04;  0.989598     ; 0.0858794    
   2.16044748189E+04;  0.989792     ; 0.0844436    
   2.17053399565E+04;  0.989785     ; 0.0825125    
   2.18066760047E+04;  0.990288     ; 0.080946     
   2.19084851621E+04;  0.990413     ; 0.0795559    
   2.20107696374E+04;  0.990617     ; 0.0778707    
   2.21135316497E+04;  0.990749     ; 0.0762739    
   2.22167734287E+04;  0.991006     ; 0.074898     
   2.23204972141E+04;  0.99111      ; 0.0732419    
   2.24247052562E+04;  0.99144      ; 0.071607     
   2.25293998161E+04;  0.991433     ; 0.0699238    
   2.26345831650E+04;  0.991605     ; 0.0684038    
   2.27402575850E+04;  0.992023     ; 0.0668914    
   2.28464253688E+04;  0.992201     ; 0.0650217    
   2.29530888197E+04;  0.992337     ; 0.06386      
   2.30602502519E+04;  0.992493     ; 0.0621791    
   2.31679119902E+04;  0.992713     ; 0.0605976    
   2.32760763706E+04;  0.992872     ; 0.0590444    
   2.33847457396E+04;  0.993032     ; 0.0574731    
   2.34939224549E+04;  0.993366     ; 0.0559297    
   2.36036088852E+04;  0.993145     ; 0.0545464    
   2.37138074102E+04;  0.993864     ; 0.052619     
   2.38245204208E+04;  0.993453     ; 0.0511323    
   2.39357503188E+04;  0.993906     ; 0.0491579    
   2.40474995175E+04;  0.994102     ; 0.0478259    
   2.41597704414E+04;  0.994276     ; 0.0459887    
   2.42725655263E+04;  0.995008     ; 0.0452781    
   2.43858872193E+04;  0.993373     ; 0.0433653    
   2.44997379790E+04;  0.993678     ; 0.0418015    
   2.46141202754E+04;  0.995321     ; 0.0403017    
   2.47290365902E+04;  0.99506      ; 0.0380083    
   2.48444894165E+04;  0.99504      ; 0.036507     
   2.49604812592E+04;  0.995009     ; 0.0351898    
   2.50770146347E+04;  0.995207     ; 0.0338132    
   2.51940920714E+04;  0.995521     ; 0.0318496    
   2.53117161092E+04;  0.995636     ; 0.0305719    
   2.54298893002E+04;  0.995411     ; 0.0290409    
   2.55486142082E+04;  0.995686     ; 0.027355     
   2.56678934089E+04;  0.995751     ; 0.0257842    
   2.57877294902E+04;  0.996116     ; 0.024139     
   2.59081250521E+04;  0.996064     ; 0.0226017    
   2.60290827065E+04;  0.996036     ; 0.0212111    
   2.61506050777E+04;  0.996268     ; 0.0194294    
   2.62726948023E+04;  0.996319     ; 0.0181533    
   2.63953545290E+04;  0.996605     ; 0.0163148    
   2.65185869190E+04;  0.996602     ; 0.0147168    
   2.66423946460E+04;  0.996772     ; 0.0130829    
   2.67667803959E+04;  0.996667     ; 0.0115973    
   2.68917468675E+04;  0.99682      ; 0.00995937   
   2.70172967719E+04;  0.996937     ; 0.00854948   
   2.71434328331E+04;  0.996911     ; 0.00684795   
   2.72701577876E+04;  0.996961     ; 0.00550535   
   2.73974743848E+04;  0.997035     ; 0.00357145   
   2.75253853869E+04;  0.996926     ; 0.00210115   
   2.76538935691E+04;  0.997201     ; 0.000550091  
   2.77830017193E+04;  0.997362     ;-0.000877798  
   2.79127126387E+04;  0.997062     ;-0.00253347   
   2.80430291415E+04;  0.997411     ;-0.00409544   
   2.81739540548E+04;  0.997328     ;-0.00570449   
   2.83054902193E+04;  0.997596     ;-0.00738961   
   2.84376404886E+04;  0.99744      ;-0.00883615   
   2.85704077300E+04;  0.997727     ;-0.0103671    
   2.87037948237E+04;  0.997516     ;-0.0118995    
   2.88378046638E+04;  0.997762     ;-0.0136389    
   2.89724401576E+04;  0.997383     ;-0.0152314    
   2.91077042262E+04;  0.997605     ;-0.0168949    
   2.92435998042E+04;  0.99762      ;-0.0183729    
   2.93801298399E+04;  0.997717     ;-0.0200898    
   2.95172972955E+04;  0.997694     ;-0.0214099    
   2.96551051468E+04;  0.997688     ;-0.0231087    
   2.97935563837E+04;  0.997831     ;-0.0246474    
   2.99326540101E+04;  0.997621     ;-0.0264281    
   3.00724010436E+04;  0.997825     ;-0.0277336    
   3.02128005161E+04;  0.997882     ;-0.0295262    
   3.03538554739E+04;  0.997788     ;-0.030879     
   3.04955689770E+04;  0.997637     ;-0.0326521    
   3.06379441001E+04;  0.998793     ;-0.0343208    
   3.07809839321E+04;  0.997772     ;-0.0359084    
   3.09246915763E+04;  0.997728     ;-0.0374017    
   3.10690701505E+04;  0.997699     ;-0.0391429    
   3.12141227872E+04;  0.997762     ;-0.0406515    
   3.13598526333E+04;  0.997502     ;-0.0423506    
   3.15062628506E+04;  0.9976       ;-0.0437831    
   3.16533566154E+04;  0.998371     ;-0.0454262    
   3.18011371191E+04;  0.99757      ;-0.0469765    
   3.19496075679E+04;  0.998195     ;-0.048886     
   3.20987711829E+04;  0.997578     ;-0.0502623    
   3.22486312004E+04;  0.997302     ;-0.0517775    
   3.23991908715E+04;  0.997213     ;-0.0533654    
   3.25504534629E+04;  0.99733      ;-0.0548306    
   3.27024222562E+04;  0.997121     ;-0.0564894    
   3.28551005485E+04;  0.99747      ;-0.0581464    
   3.30084916523E+04;  0.996984     ;-0.0599839    
   3.31625988954E+04;  0.997224     ;-0.061392     
   3.33174256213E+04;  0.997032     ;-0.0630901    
   3.34729751891E+04;  0.996951     ;-0.0646351    
   3.36292509735E+04;  0.996705     ;-0.0663855    
   3.37862563651E+04;  0.996804     ;-0.0678561    
   3.39439947700E+04;  0.997625     ;-0.0695665    
   3.41024696107E+04;  0.997488     ;-0.071208     
   3.42616843252E+04;  0.997334     ;-0.0729452    
   3.44216423679E+04;  0.997383     ;-0.074399     
   3.45823472091E+04;  0.997294     ;-0.0760198    
   3.47438023354E+04;  0.996025     ;-0.0774136    
   3.49060112497E+04;  0.996134     ;-0.0792283    
   3.50689774712E+04;  0.996961     ;-0.0809481    
   3.52327045355E+04;  0.996806     ;-0.0825684    
   3.53971959949E+04;  0.996886     ;-0.084127     
   3.55624554180E+04;  0.996626     ;-0.0857414    
   3.57284863903E+04;  0.996469     ;-0.0874671    
   3.58952925139E+04;  0.995394     ;-0.0888541    
   3.60628774078E+04;  0.995246     ;-0.0905684    
   3.62312447078E+04;  0.995309     ;-0.0922309    
   3.64003980667E+04;  0.995934     ;-0.0937496    
   3.65703411545E+04;  0.995881     ;-0.0955814    
   3.67410776581E+04;  0.995613     ;-0.0971538    
   3.69126112819E+04;  0.995618     ;-0.0989188    
   3.70849457472E+04;  0.995217     ;-0.100573     
   3.72580847931E+04;  0.994272     ;-0.102011     
   3.74320321758E+04;  0.994425     ;-0.103601     
   3.76067916693E+04;  0.994068     ;-0.10525      
   3.77823670651E+04;  0.994789     ;-0.107047     
   3.79587621724E+04;  0.994476     ;-0.108747     
   3.81359808182E+04;  0.994649     ;-0.110558     
   3.83140268474E+04;  0.994259     ;-0.11208      
   3.84929041228E+04;  0.994223     ;-0.113768     
   3.86726165251E+04;  0.993922     ;-0.115441     
   3.88531679535E+04;  0.993891     ;-0.117095     
   3.90345623251E+04;  0.993335     ;-0.118647     
   3.92168035753E+04;  0.993244     ;-0.120378     
   3.93998956580E+04;  0.993138     ;-0.122237     
   3.95838425455E+04;  0.992886     ;-0.123628     
   3.97686482285E+04;  0.992018     ;-0.125235     
   3.99543167167E+04;  0.991519     ;-0.126825     
   4.01408520381E+04;  0.991428     ;-0.128488     
   4.03282582398E+04;  0.992099     ;-0.130465     
   4.05165393876E+04;  0.991977     ;-0.132249     
   4.07056995665E+04;  0.991868     ;-0.134016     
   4.08957428804E+04;  0.991495     ;-0.135425     
   4.10866734523E+04;  0.991253     ;-0.136938     
   4.12784954247E+04;  0.990064     ;-0.138753     
   4.14712129592E+04;  0.990737     ;-0.140748     
   4.16648302370E+04;  0.990607     ;-0.142355     
   4.18593514587E+04;  0.990118     ;-0.144057     
   4.20547808446E+04;  0.990089     ;-0.145803     
   4.22511226346E+04;  0.989731     ;-0.14741      
   4.24483810885E+04;  0.98962      ;-0.149161     
   4.26465604859E+04;  0.988372     ;-0.150647     
   4.28456651264E+04;  0.988155     ;-0.152554     
   4.30456993298E+04;  0.988602     ;-0.154327     
   4.32466674358E+04;  0.988363     ;-0.156015     
   4.34485738047E+04;  0.988162     ;-0.15774      
   4.36514228170E+04;  0.988104     ;-0.159387     
   4.38552188734E+04;  0.987618     ;-0.161175     
   4.40599663956E+04;  0.987281     ;-0.162922     
   4.42656698256E+04;  0.987109     ;-0.164849     
   4.44723336264E+04;  0.986824     ;-0.166304     
   4.46799622815E+04;  0.986335     ;-0.168122     
   4.48885602957E+04;  0.986089     ;-0.169837     
   4.50981321946E+04;  0.985943     ;-0.171645     
   4.53086825250E+04;  0.985479     ;-0.173345     
   4.55202158548E+04;  0.985165     ;-0.17512      
   4.57327367735E+04;  0.984192     ;-0.176924     
   4.59462498919E+04;  0.98355      ;-0.178365     
   4.61607598421E+04;  0.984046     ;-0.180098     
   4.63762712782E+04;  0.983869     ;-0.181994     
   4.65927888758E+04;  0.983452     ;-0.183911     
   4.68103173324E+04;  0.983319     ;-0.18563      
   4.70288613674E+04;  0.982925     ;-0.187426     
   4.72484257222E+04;  0.982739     ;-0.189221     
   4.74690151604E+04;  0.982202     ;-0.191094     
   4.76906344678E+04;  0.981716     ;-0.192664     
   4.79132884527E+04;  0.981364     ;-0.194631     
   4.81369819455E+04;  0.981121     ;-0.196531     
   4.83617197996E+04;  0.980562     ;-0.19805      
   4.85875068907E+04;  0.980187     ;-0.199751     
   4.88143481173E+04;  0.979821     ;-0.202052     
   4.90422484011E+04;  0.978523     ;-0.203325     
   4.92712126863E+04;  0.978402     ;-0.205349     
   4.95012459405E+04;  0.97869      ;-0.207195     
   4.97323531545E+04;  0.978519     ;-0.208975     
   4.99645393422E+04;  0.977869     ;-0.210888     
   5.01978095410E+04;  0.97754      ;-0.212812     
   5.04321688120E+04;  0.977222     ;-0.214209     
   5.06676222396E+04;  0.976623     ;-0.216202     
   5.09041749322E+04;  0.975927     ;-0.217673     
   5.11418320219E+04;  0.975865     ;-0.219728     
   5.13805986649E+04;  0.975576     ;-0.222446     
   5.16204800412E+04;  0.974639     ;-0.223096     
   5.18614813554E+04;  0.974416     ;-0.22596      
   5.21036078361E+04;  0.974344     ;-0.227176     
   5.23468647363E+04;  0.973975     ;-0.228796     
   5.25912573337E+04;  0.973044     ;-0.230809     
   5.28367909305E+04;  0.9727       ;-0.232958     
   5.30834708537E+04;  0.972591     ;-0.23489      
   5.33313024551E+04;  0.970843     ;-0.236022     
   5.35802911117E+04;  0.971533     ;-0.238393     
   5.38304422254E+04;  0.970636     ;-0.239992     
   5.40817612234E+04;  0.970035     ;-0.242065     
   5.43342535582E+04;  0.969316     ;-0.243719     
   5.45879247078E+04;  0.968545     ;-0.245605     
   5.48427801757E+04;  0.968769     ;-0.247654     
   5.50988254911E+04;  0.967472     ;-0.249165     
   5.53560662092E+04;  0.967482     ;-0.251767     
   5.56145079109E+04;  0.967196     ;-0.253418     
   5.58741562033E+04;  0.966621     ;-0.255425     
   5.61350167196E+04;  0.966301     ;-0.256716     
   5.63970951193E+04;  0.965078     ;-0.259008     
   5.66603970884E+04;  0.965104     ;-0.261094     
   5.69249283393E+04;  0.964647     ;-0.263068     
   5.71906946113E+04;  0.96432      ;-0.264852     
   5.74577016703E+04;  0.963415     ;-0.266694     
   5.77259553092E+04;  0.962727     ;-0.268602     
   5.79954613480E+04;  0.962454     ;-0.270421     
   5.82662256336E+04;  0.9611       ;-0.272099     
   5.85382540405E+04;  0.960516     ;-0.27442      
   5.88115524706E+04;  0.96042      ;-0.276595     
   5.90861268531E+04;  0.959784     ;-0.278654     
   5.93619831452E+04;  0.958899     ;-0.280283     
   5.96391273318E+04;  0.958925     ;-0.282227     
   5.99175654256E+04;  0.958066     ;-0.284081     
   6.01973034675E+04;  0.956796     ;-0.286566     
   6.04783475267E+04;  0.956364     ;-0.288367     
   6.07607037005E+04;  0.956224     ;-0.290389     
   6.10443781148E+04;  0.955317     ;-0.29205      
   6.13293769242E+04;  0.954826     ;-0.294033     
   6.16157063117E+04;  0.95391      ;-0.295787     
   6.19033724897E+04;  0.953106     ;-0.298352     
   6.21923816990E+04;  0.95269      ;-0.299532     
   6.24827402100E+04;  0.951944     ;-0.302549     
   6.27744543222E+04;  0.951064     ;-0.304252     
   6.30675303644E+04;  0.950491     ;-0.306097     
   6.33619746952E+04;  0.950358     ;-0.307984     
   6.36577937027E+04;  0.949037     ;-0.310568     
   6.39549938048E+04;  0.948502     ;-0.312395     
   6.42535814495E+04;  0.947775     ;-0.314728     
   6.45535631149E+04;  0.94626      ;-0.316272     
   6.48549453092E+04;  0.946715     ;-0.318589     
   6.51577345711E+04;  0.945496     ;-0.320737     
   6.54619374698E+04;  0.944773     ;-0.322538     
   6.57675606052E+04;  0.944016     ;-0.324916     
   6.60746106079E+04;  0.943286     ;-0.326945     
   6.63830941396E+04;  0.942664     ;-0.329024     
   6.66930178930E+04;  0.940326     ;-0.331094     
   6.70043885922E+04;  0.940993     ;-0.333125     
   6.73172129924E+04;  0.940184     ;-0.335184     
   6.76314978806E+04;  0.939375     ;-0.337343     
   6.79472500754E+04;  0.938408     ;-0.339274     
   6.82644764272E+04;  0.93765      ;-0.341491     
   6.85831838185E+04;  0.936882     ;-0.34369      
   6.89033791638E+04;  0.935256     ;-0.345089     
   6.92250694099E+04;  0.935514     ;-0.347589     
   6.95482615362E+04;  0.934284     ;-0.349785     
   6.98729625544E+04;  0.932917     ;-0.35216      
   7.01991795091E+04;  0.931921     ;-0.354208     
   7.05269194779E+04;  0.931371     ;-0.35653      
   7.08561895712E+04;  0.930757     ;-0.357728     
   7.11869969328E+04;  0.929409     ;-0.360657     
   7.15193487397E+04;  0.929272     ;-0.362944     
   7.18532522024E+04;  0.927522     ;-0.36418      
   7.21887145654E+04;  0.926256     ;-0.366777     
   7.25257431065E+04;  0.926139     ;-0.36972      
   7.28643451378E+04;  0.92467      ;-0.371541     
   7.32045280056E+04;  0.924051     ;-0.374256     
   7.35462990902E+04;  0.923574     ;-0.375174     
   7.38896658067E+04;  0.922794     ;-0.37735      
   7.42346356045E+04;  0.921099     ;-0.379863     
   7.45812159681E+04;  0.920745     ;-0.382403     
   7.49294144166E+04;  0.91956      ;-0.384329     
   7.52792385045E+04;  0.917837     ;-0.386072     
   7.56306958213E+04;  0.917418     ;-0.388602     
   7.59837939923E+04;  0.915748     ;-0.390496     
   7.63385406780E+04;  0.915439     ;-0.392815     
   7.66949435749E+04;  0.914203     ;-0.39568      
   7.70530104154E+04;  0.912996     ;-0.397351     
   7.74127489679E+04;  0.911992     ;-0.399964     
   7.77741670373E+04;  0.910654     ;-0.402046     
   7.81372724647E+04;  0.909718     ;-0.404165     
   7.85020731278E+04;  0.908498     ;-0.406633     
   7.88685769413E+04;  0.907667     ;-0.408775     
   7.92367918567E+04;  0.906372     ;-0.411181     
   7.96067258626E+04;  0.905111     ;-0.413504     
   7.99783869850E+04;  0.904149     ;-0.415487     
   8.03517832873E+04;  0.902705     ;-0.418018     
   8.07269228706E+04;  0.902061     ;-0.420355     
   8.11038138737E+04;  0.900586     ;-0.42212      
   8.14824644734E+04;  0.899461     ;-0.424671     
   8.18628828850E+04;  0.898259     ;-0.427295     
   8.22450773618E+04;  0.897137     ;-0.429534     
   8.26290561956E+04;  0.895628     ;-0.430971     
   8.30148277173E+04;  0.894841     ;-0.433834     
   8.34024002962E+04;  0.893592     ;-0.435917     
   8.37917823411E+04;  0.892321     ;-0.438089     
   8.41829822999E+04;  0.891084     ;-0.440953     
   8.45760086598E+04;  0.889781     ;-0.443372     
   8.49708699478E+04;  0.888532     ;-0.445527     
   8.53675747306E+04;  0.887492     ;-0.448034     
   8.57661316150E+04;  0.885367     ;-0.449791     
   8.61665492480E+04;  0.883824     ;-0.45194      
   8.65688363169E+04;  0.882492     ;-0.454485     
   8.69730015494E+04;  0.881637     ;-0.456417     
   8.73790537143E+04;  0.879935     ;-0.45869      
   8.77870016210E+04;  0.87859      ;-0.461421     
   8.81968541203E+04;  0.876785     ;-0.463586     
   8.86086201041E+04;  0.875805     ;-0.466049     
   8.90223085060E+04;  0.874413     ;-0.468538     
   8.94379283012E+04;  0.873399     ;-0.471006     
   8.98554885068E+04;  0.871958     ;-0.473375     
   9.02749981820E+04;  0.870411     ;-0.475892     
   9.06964664284E+04;  0.868651     ;-0.478152     
   9.11199023900E+04;  0.866686     ;-0.47953      
   9.15453152534E+04;  0.866166     ;-0.482857     
   9.19727142482E+04;  0.864669     ;-0.485321     
   9.24021086472E+04;  0.863048     ;-0.488291     
   9.28335077663E+04;  0.862171     ;-0.490769     
   9.32669209650E+04;  0.860252     ;-0.492764     
   9.37023576464E+04;  0.858388     ;-0.49478      
   9.41398272577E+04;  0.856673     ;-0.49725      
   9.45793392899E+04;  0.855216     ;-0.499937     
   9.50209032786E+04;  0.853429     ;-0.502239     
   9.54645288037E+04;  0.852393     ;-0.504726     
   9.59102254900E+04;  0.850165     ;-0.50719      
   9.63580030071E+04;  0.849373     ;-0.51013      
   9.68078710699E+04;  0.847939     ;-0.513337     
   9.72598394386E+04;  0.846464     ;-0.51486      
   9.77139179187E+04;  0.844862     ;-0.517741     
   9.81701163619E+04;  0.842703     ;-0.519802     
   9.86284446657E+04;  0.841175     ;-0.522142     
   9.90889127738E+04;  0.8387       ;-0.524195     
   9.95515306762E+04;  0.836763     ;-0.526392     
   1.00016308410E+05;  0.835467     ;-0.52923      
   1.00483256058E+05;  0.834241     ;-0.53174      
   1.00952383752E+05;  0.832353     ;-0.534543     
   1.01423701670E+05;  0.830113     ;-0.537387     
   1.01897220036E+05;  0.828122     ;-0.539575     
   1.02372949125E+05;  0.826622     ;-0.541924     
   1.02850899258E+05;  0.824543     ;-0.544411     
   1.03331080803E+05;  0.822978     ;-0.546867     
   1.03813504180E+05;  0.821076     ;-0.549424     
   1.04298179853E+05;  0.819118     ;-0.551928     
   1.04785118340E+05;  0.817339     ;-0.554703     
   1.05274330203E+05;  0.815515     ;-0.557024     
   1.05765826057E+05;  0.813493     ;-0.559804     
   1.06259616565E+05;  0.811624     ;-0.561945     
   1.06755712441E+05;  0.809203     ;-0.564694     
   1.07254124447E+05;  0.807429     ;-0.567484     
   1.07754863396E+05;  0.805218     ;-0.569938     
   1.08257940153E+05;  0.803525     ;-0.571989     
   1.08763365632E+05;  0.801139     ;-0.574805     
   1.09271150798E+05;  0.799789     ;-0.57715      
   1.09781306669E+05;  0.797571     ;-0.579816     
   1.10293844312E+05;  0.795171     ;-0.582593     
   1.10808774848E+05;  0.793144     ;-0.585059     
   1.11326109447E+05;  0.790795     ;-0.58777      
   1.11845859334E+05;  0.788884     ;-0.590023     
   1.12368035786E+05;  0.786528     ;-0.592823     
   1.12892650130E+05;  0.784546     ;-0.595167     
   1.13419713749E+05;  0.782386     ;-0.597838     
   1.13949238079E+05;  0.78049      ;-0.600663     
   1.14481234606E+05;  0.7782       ;-0.603686     
   1.15015714874E+05;  0.775953     ;-0.606307     
   1.15552690478E+05;  0.773817     ;-0.608991     
   1.16092173067E+05;  0.771072     ;-0.611193     
   1.16634174348E+05;  0.7687       ;-0.613559     
   1.17178706078E+05;  0.766787     ;-0.616026     
   1.17725780071E+05;  0.764216     ;-0.618527     
   1.18275408197E+05;  0.761883     ;-0.621603     
   1.18827602380E+05;  0.759364     ;-0.623696     
   1.19382374601E+05;  0.757437     ;-0.626449     
   1.19939736895E+05;  0.754794     ;-0.62945      
   1.20499701355E+05;  0.752289     ;-0.631984     
   1.21062280129E+05;  0.749808     ;-0.634224     
   1.21627485423E+05;  0.747363     ;-0.636664     
   1.22195329500E+05;  0.745042     ;-0.63928      
   1.22765824679E+05;  0.742178     ;-0.642211     
   1.23338983337E+05;  0.739705     ;-0.644449     
   1.23914817910E+05;  0.736926     ;-0.647199     
   1.24493340890E+05;  0.734605     ;-0.649908     
   1.25074564830E+05;  0.732311     ;-0.652534     
   1.25658502338E+05;  0.729308     ;-0.655164     
   1.26245166084E+05;  0.726364     ;-0.657735     
   1.26834568796E+05;  0.723774     ;-0.660447     
   1.27426723262E+05;  0.721404     ;-0.662748     
   1.28021642328E+05;  0.718308     ;-0.665103     
   1.28619338901E+05;  0.715723     ;-0.668062     
   1.29219825950E+05;  0.713261     ;-0.670675     
   1.29823116501E+05;  0.710122     ;-0.673414     
   1.30429223644E+05;  0.707113     ;-0.675941     
   1.31038160529E+05;  0.704796     ;-0.678883     
   1.31649940367E+05;  0.702115     ;-0.680969     
   1.32264576430E+05;  0.698762     ;-0.683589     
   1.32882082054E+05;  0.695992     ;-0.686754     
   1.33502470636E+05;  0.693515     ;-0.688952     
   1.34125755635E+05;  0.690152     ;-0.691934     
   1.34751950575E+05;  0.686312     ;-0.694244     
   1.35381069040E+05;  0.683144     ;-0.696923     
   1.36013124680E+05;  0.680857     ;-0.698471     
   1.36648131208E+05;  0.677907     ;-0.70104      
   1.37286102400E+05;  0.674939     ;-0.704042     
   1.37927052099E+05;  0.67118      ;-0.706029     
   1.38570994208E+05;  0.668811     ;-0.70778      
   1.39217942700E+05;  0.665044     ;-0.711645     
   1.39867911610E+05;  0.663432     ;-0.71393      
   1.40520915040E+05;  0.660537     ;-0.717105     
   1.41176967156E+05;  0.656549     ;-0.718395     
   1.41836082194E+05;  0.653563     ;-0.723218     
   1.42498274451E+05;  0.650261     ;-0.725469     
   1.43163558295E+05;  0.647303     ;-0.726236     
   1.43831948161E+05;  0.643644     ;-0.731007     
   1.44503458548E+05;  0.640623     ;-0.733184     
   1.45178104025E+05;  0.635782     ;-0.733974     
   1.45855899230E+05;  0.633602     ;-0.736072     
   1.46536858868E+05;  0.629037     ;-0.739293     
   1.47220997713E+05;  0.62805      ;-0.742984     
   1.47908330606E+05;  0.623934     ;-0.745678     
   1.48598872462E+05;  0.619576     ;-0.746934     
   1.49292638260E+05;  0.616617     ;-0.751199     
   1.49989643053E+05;  0.613454     ;-0.752825     
   1.50689901963E+05;  0.607945     ;-0.754822     
   1.51393430183E+05;  0.604672     ;-0.756815     
   1.52100242975E+05;  0.600922     ;-0.760271     
   1.52810355675E+05;  0.597811     ;-0.761795     
   1.53523783688E+05;  0.593564     ;-0.764398     
   1.54240542494E+05;  0.589703     ;-0.768        
   1.54960647643E+05;  0.586676     ;-0.770583     
   1.55684114757E+05;  0.582846     ;-0.772663     
   1.56410959533E+05;  0.578872     ;-0.774757     
   1.57141197740E+05;  0.575562     ;-0.776738     
   1.57874845221E+05;  0.571472     ;-0.779448     
   1.58611917894E+05;  0.566804     ;-0.781892     
   1.59352431749E+05;  0.563258     ;-0.784485     
   1.60096402852E+05;  0.55997      ;-0.786981     
   1.60843847344E+05;  0.55571      ;-0.789176     
   1.61594781441E+05;  0.551317     ;-0.791732     
   1.62349221436E+05;  0.547941     ;-0.793597     
   1.63107183696E+05;  0.543232     ;-0.796256     
   1.63868684666E+05;  0.539081     ;-0.798636     
   1.64633740867E+05;  0.534938     ;-0.800763     
   1.65402368898E+05;  0.531427     ;-0.803471     
   1.66174585433E+05;  0.526986     ;-0.80549      
   1.66950407228E+05;  0.5229       ;-0.807738     
   1.67729851114E+05;  0.518571     ;-0.810095     
   1.68512934001E+05;  0.514262     ;-0.81186      
   1.69299672879E+05;  0.509532     ;-0.81427      
   1.70090084817E+05;  0.50535      ;-0.816909     
   1.70884186963E+05;  0.501174     ;-0.819449     
   1.71681996545E+05;  0.497375     ;-0.821176     
   1.72483530873E+05;  0.492697     ;-0.823461     
   1.73288807337E+05;  0.487885     ;-0.82613      
   1.74097843407E+05;  0.483304     ;-0.828053     
   1.74910656636E+05;  0.478906     ;-0.830107     
   1.75727264658E+05;  0.473891     ;-0.831933     
   1.76547685191E+05;  0.469799     ;-0.834247     
   1.77371936033E+05;  0.4655       ;-0.836272     
   1.78200035067E+05;  0.460872     ;-0.838228     
   1.79032000260E+05;  0.455847     ;-0.839911     
   1.79867849662E+05;  0.451118     ;-0.842075     
   1.80707601406E+05;  0.445987     ;-0.844751     
   1.81551273712E+05;  0.441256     ;-0.846653     
   1.82398884883E+05;  0.436772     ;-0.848124     
   1.83250453310E+05;  0.431961     ;-0.849908     
   1.84105997466E+05;  0.427046     ;-0.85239      
   1.84965535915E+05;  0.422382     ;-0.854256     
   1.85829087304E+05;  0.41726      ;-0.856184     
   1.86696670368E+05;  0.411673     ;-0.858233     
   1.87568303931E+05;  0.407114     ;-0.859975     
   1.88444006902E+05;  0.402368     ;-0.862075     
   1.89323798281E+05;  0.397074     ;-0.86395      
   1.90207697155E+05;  0.392233     ;-0.864807     
   1.91095722701E+05;  0.38646      ;-0.866728     
   1.91987894186E+05;  0.381503     ;-0.868163     
   1.92884230965E+05;  0.375712     ;-0.870877     
   1.93784752485E+05;  0.370881     ;-0.871753     
   1.94689478283E+05;  0.366105     ;-0.87424      
   1.95598427988E+05;  0.360862     ;-0.874908     
   1.96511621321E+05;  0.355083     ;-0.877524     
   1.97429078093E+05;  0.34973      ;-0.878996     
   1.98350818209E+05;  0.344378     ;-0.880387     
   1.99276861668E+05;  0.338862     ;-0.881441     
   2.00207228559E+05;  0.333337     ;-0.883367     
   2.01141939068E+05;  0.328184     ;-0.885408     
   2.02081013475E+05;  0.322888     ;-0.886435     
   2.03024472152E+05;  0.317301     ;-0.887166     
   2.03972335569E+05;  0.311061     ;-0.888975     
   2.04924624290E+05;  0.305433     ;-0.890565     
   2.05881358976E+05;  0.300257     ;-0.891993     
   2.06842560384E+05;  0.293983     ;-0.89321      
   2.07808249367E+05;  0.288919     ;-0.894207     
   2.08778446877E+05;  0.28343      ;-0.895516     
   2.09753173963E+05;  0.277087     ;-0.896579     
   2.10732451772E+05;  0.270746     ;-0.898317     
   2.11716301549E+05;  0.265048     ;-0.898993     
   2.12704744642E+05;  0.259511     ;-0.900041     
   2.13697802493E+05;  0.253772     ;-0.901017     
   2.14695496648E+05;  0.247147     ;-0.901796     
   2.15697848754E+05;  0.241312     ;-0.903322     
   2.16704880555E+05;  0.235678     ;-0.904314     
   2.17716613901E+05;  0.229751     ;-0.904961     
   2.18733070742E+05;  0.223437     ;-0.905366     
   2.19754273131E+05;  0.216833     ;-0.906609     
   2.20780243222E+05;  0.210406     ;-0.907393     
   2.21811003275E+05;  0.205354     ;-0.90804      
   2.22846575654E+05;  0.198479     ;-0.908793     
   2.23886982825E+05;  0.192512     ;-0.909435     
   2.24932247360E+05;  0.185862     ;-0.909799     
   2.25982391938E+05;  0.179651     ;-0.910572     
   2.27037439341E+05;  0.173385     ;-0.911361     
   2.28097412461E+05;  0.167243     ;-0.911507     
   2.29162334293E+05;  0.160853     ;-0.911597     
   2.30232227941E+05;  0.154115     ;-0.911976     
   2.31307116618E+05;  0.147624     ;-0.912651     
   2.32387023644E+05;  0.141448     ;-0.913145     
   2.33471972449E+05;  0.134967     ;-0.913199     
   2.34561986570E+05;  0.128456     ;-0.913109     
   2.35657089656E+05;  0.121393     ;-0.913796     
   2.36757305467E+05;  0.115052     ;-0.913657     
   2.37862657872E+05;  0.108354     ;-0.914036     
   2.38973170853E+05;  0.101759     ;-0.914143     
   2.40088868502E+05;  0.0955295    ;-0.913602     
   2.41209775025E+05;  0.0879308    ;-0.912944     
   2.42335914742E+05;  0.0811742    ;-0.913189     
   2.43467312084E+05;  0.0747667    ;-0.913054     
   2.44603991599E+05;  0.0683678    ;-0.913207     
   2.45745977946E+05;  0.0617019    ;-0.912755     
   2.46893295901E+05;  0.0546173    ;-0.912214     
   2.48045970358E+05;  0.0471911    ;-0.911463     
   2.49204026323E+05;  0.040605     ;-0.911095     
   2.50367488922E+05;  0.0340217    ;-0.91125      
   2.51536383396E+05;  0.0275821    ;-0.910051     
   2.52710735105E+05;  0.0199629    ;-0.909017     
   2.53890569527E+05;  0.012532     ;-0.908778     
   2.55075912261E+05;  0.00547539   ;-0.908191     
   2.56266789022E+05; -0.00118091   ;-0.907182     
   2.57463225647E+05; -0.00801104   ;-0.905846     
   2.58665248094E+05; -0.0151886    ;-0.904958     
   2.59872882442E+05; -0.0225886    ;-0.903649     
   2.61086154890E+05; -0.0296002    ;-0.903294     
   2.62305091761E+05; -0.0368021    ;-0.901905     
   2.63529719502E+05; -0.043694     ;-0.900897     
   2.64760064680E+05; -0.0506315    ;-0.89913      
   2.65996153990E+05; -0.0581886    ;-0.897561     
   2.67238014248E+05; -0.0654647    ;-0.896503     
   2.68485672398E+05; -0.0726688    ;-0.894659     
   2.69739155508E+05; -0.0799389    ;-0.893819     
   2.70998490774E+05; -0.086709     ;-0.892097     
   2.72263705518E+05; -0.0938677    ;-0.889812     
   2.73534827189E+05; -0.101472     ;-0.88806      
   2.74811883365E+05; -0.108728     ;-0.885969     
   2.76094901752E+05; -0.116622     ;-0.884508     
   2.77383910186E+05; -0.123769     ;-0.882722     
   2.78678936634E+05; -0.130685     ;-0.880855     
   2.79980009191E+05; -0.137968     ;-0.87846      
   2.81287156085E+05; -0.14489      ;-0.87568      
   2.82600405676E+05; -0.152689     ;-0.873613     
   2.83919786454E+05; -0.160105     ;-0.870813     
   2.85245327046E+05; -0.168015     ;-0.869179     
   2.86577056209E+05; -0.175151     ;-0.866548     
   2.87915002836E+05; -0.182239     ;-0.86387      
   2.89259195955E+05; -0.189268     ;-0.861169     
   2.90609664728E+05; -0.196333     ;-0.858234     
   2.91966438456E+05; -0.204216     ;-0.855407     
   2.93329546573E+05; -0.211919     ;-0.852715     
   2.94699018654E+05; -0.218698     ;-0.849465     
   2.96074884410E+05; -0.226452     ;-0.845983     
   2.97457173691E+05; -0.233632     ;-0.842926     
   2.98845916487E+05; -0.241405     ;-0.839778     
   3.00241142927E+05; -0.248347     ;-0.836672     
   3.01642883282E+05; -0.256246     ;-0.833261     
   3.03051167963E+05; -0.263569     ;-0.830186     
   3.04466027525E+05; -0.270591     ;-0.826542     
   3.05887492662E+05; -0.277357     ;-0.822289     
   3.07315594215E+05; -0.285247     ;-0.818659     
   3.08750363168E+05; -0.292858     ;-0.815142     
   3.10191830648E+05; -0.299607     ;-0.810924     
   3.11640027929E+05; -0.307347     ;-0.807337     
   3.13094986430E+05; -0.314323     ;-0.803357     
   3.14556737718E+05; -0.321953     ;-0.799357     
   3.16025313507E+05; -0.328797     ;-0.794664     
   3.17500745657E+05; -0.33591      ;-0.790407     
   3.18983066180E+05; -0.343409     ;-0.785955     
   3.20472307235E+05; -0.35118      ;-0.781316     
   3.21968501132E+05; -0.357802     ;-0.777098     
   3.23471680332E+05; -0.364628     ;-0.772039     
   3.24981877448E+05; -0.372042     ;-0.767373     
   3.26499125243E+05; -0.37898      ;-0.761905     
   3.28023456637E+05; -0.386084     ;-0.757061     
   3.29554904699E+05; -0.39371      ;-0.751503     
   3.31093502656E+05; -0.400708     ;-0.746352     
   3.32639283888E+05; -0.40749      ;-0.741578     
   3.34192281933E+05; -0.414206     ;-0.736231     
   3.35752530483E+05; -0.420648     ;-0.730918     
   3.37320063389E+05; -0.42791      ;-0.725179     
   3.38894914659E+05; -0.434635     ;-0.719672     
   3.40477118462E+05; -0.442033     ;-0.713982     
   3.42066709123E+05; -0.448608     ;-0.708278     
   3.43663721130E+05; -0.455297     ;-0.702255     
   3.45268189131E+05; -0.461954     ;-0.696191     
   3.46880147937E+05; -0.468397     ;-0.690275     
   3.48499632518E+05; -0.474712     ;-0.684255     
   3.50126678012E+05; -0.481704     ;-0.677678     
   3.51761319717E+05; -0.488109     ;-0.671257     
   3.53403593099E+05; -0.494931     ;-0.664905     
   3.55053533788E+05; -0.501344     ;-0.657901     
   3.56711177579E+05; -0.507264     ;-0.6517       
   3.58376560437E+05; -0.514296     ;-0.64469      
   3.60049718493E+05; -0.519874     ;-0.638187     
   3.61730688047E+05; -0.52642      ;-0.631018     
   3.63419505570E+05; -0.532044     ;-0.623979     
   3.65116207700E+05; -0.538619     ;-0.616651     
   3.66820831249E+05; -0.544402     ;-0.609694     
   3.68533413199E+05; -0.550579     ;-0.602659     
   3.70253990707E+05; -0.556257     ;-0.594925     
   3.71982601101E+05; -0.562165     ;-0.588004     
   3.73719281885E+05; -0.567886     ;-0.579791     
   3.75464070736E+05; -0.573688     ;-0.571729     
   3.77217005509E+05; -0.578923     ;-0.564566     
   3.78978124235E+05; -0.584326     ;-0.55603      
   3.80747465123E+05; -0.590455     ;-0.548647     
   3.82525066560E+05; -0.595556     ;-0.54037      
   3.84310967111E+05; -0.600238     ;-0.532596     
   3.86105205523E+05; -0.606092     ;-0.523822     
   3.87907820723E+05; -0.610642     ;-0.516052     
   3.89718851819E+05; -0.616037     ;-0.507549     
   3.91538338104E+05; -0.620974     ;-0.498902     
   3.93366319052E+05; -0.626558     ;-0.490787     
   3.95202834322E+05; -0.63064      ;-0.48125      
   3.97047923759E+05; -0.635643     ;-0.473422     
   3.98901627392E+05; -0.639902     ;-0.464366     
   4.00763985440E+05; -0.644318     ;-0.454942     
   4.02635038307E+05; -0.64885      ;-0.446477     
   4.04514826587E+05; -0.652821     ;-0.436986     
   4.06403391062E+05; -0.657491     ;-0.428169     
   4.08300772707E+05; -0.661634     ;-0.418706     
   4.10207012686E+05; -0.665055     ;-0.409533     
   4.12122152357E+05; -0.669015     ;-0.399774     
   4.14046233269E+05; -0.672969     ;-0.390318     
   4.15979297167E+05; -0.676793     ;-0.381298     
   4.17921385989E+05; -0.680565     ;-0.371384     
   4.19872541871E+05; -0.683965     ;-0.362143     
   4.21832807144E+05; -0.686693     ;-0.352116     
   4.23802224337E+05; -0.69017      ;-0.342506     
   4.25780836177E+05; -0.69265      ;-0.332506     
   4.27768685592E+05; -0.696702     ;-0.322449     
   4.29765815710E+05; -0.69893      ;-0.312768     
   4.31772269860E+05; -0.702058     ;-0.302008     
   4.33788091572E+05; -0.704677     ;-0.292459     
   4.35813324582E+05; -0.706424     ;-0.281599     
   4.37848012827E+05; -0.709178     ;-0.271865     
   4.39892200452E+05; -0.711037     ;-0.261157     
   4.41945931807E+05; -0.713778     ;-0.250662     
   4.44009251449E+05; -0.715051     ;-0.240533     
   4.46082204141E+05; -0.716959     ;-0.229533     
   4.48164834860E+05; -0.718984     ;-0.219348     
   4.50257188788E+05; -0.719687     ;-0.208665     
   4.52359311320E+05; -0.721574     ;-0.198334     
   4.54471248063E+05; -0.72226      ;-0.187198     
   4.56593044838E+05; -0.723959     ;-0.176967     
   4.58724747677E+05; -0.724414     ;-0.165385     
   4.60866402829E+05; -0.725578     ;-0.154838     
   4.63018056759E+05; -0.726439     ;-0.144297     
   4.65179756148E+05; -0.726215     ;-0.13292      
   4.67351547896E+05; -0.727061     ;-0.122631     
   4.69533479120E+05; -0.727013     ;-0.111746     
   4.71725597160E+05; -0.727101     ;-0.100296     
   4.73927949575E+05; -0.727142     ;-0.0894526    
   4.76140584145E+05; -0.726415     ;-0.0783554    
   4.78363548876E+05; -0.726437     ;-0.0675557    
   4.80596891996E+05; -0.725182     ;-0.0559108    
   4.82840661958E+05; -0.72472      ;-0.0448613    
   4.85094907443E+05; -0.723831     ;-0.0341887    
   4.87359677358E+05; -0.722859     ;-0.0228911    
   4.89635020839E+05; -0.721777     ;-0.0117561    
   4.91920987250E+05; -0.719963     ;-0.000168338  
   4.94217626187E+05; -0.718818     ; 0.0103857    
   4.96524987477E+05; -0.71681      ; 0.0215966    
   4.98843121179E+05; -0.714319     ; 0.0325848    
   5.01172077587E+05; -0.712859     ; 0.0442635    
   5.03511907229E+05; -0.710233     ; 0.0556936    
   5.05862660869E+05; -0.708175     ; 0.0662136    
   5.08224389508E+05; -0.705127     ; 0.0779072    
   5.10597144385E+05; -0.702643     ; 0.0890918    
   5.12980976978E+05; -0.699593     ; 0.0993817    
   5.15375939007E+05; -0.696081     ; 0.110853     
   5.17782082431E+05; -0.693255     ; 0.121848     
   5.20199459453E+05; -0.689421     ; 0.133243     
   5.22628122520E+05; -0.686109     ; 0.143551     
   5.25068124323E+05; -0.681783     ; 0.155204     
   5.27519517799E+05; -0.678034     ; 0.165151     
   5.29982356133E+05; -0.673697     ; 0.176217     
   5.32456692757E+05; -0.668647     ; 0.187767     
   5.34942581354E+05; -0.664238     ; 0.198574     
   5.37440075856E+05; -0.659983     ; 0.209537     
   5.39949230449E+05; -0.655327     ; 0.220121     
   5.42470099570E+05; -0.64995      ; 0.2304       
   5.45002737910E+05; -0.644514     ; 0.240751     
   5.47547200417E+05; -0.639341     ; 0.251131     
   5.50103542295E+05; -0.63311      ; 0.26192      
   5.52671819005E+05; -0.627576     ; 0.271873     
   5.55252086267E+05; -0.621088     ; 0.282784     
   5.57844400061E+05; -0.615391     ; 0.292656     
   5.60448816631E+05; -0.608816     ; 0.303414     
   5.63065392479E+05; -0.602486     ; 0.313136     
   5.65694184374E+05; -0.595592     ; 0.323181     
   5.68335249350E+05; -0.588655     ; 0.333107     
   5.70988644705E+05; -0.58184      ; 0.343045     
   5.73654428008E+05; -0.574835     ; 0.352767     
   5.76332657093E+05; -0.567153     ; 0.362326     
   5.79023390067E+05; -0.559433     ; 0.371702     
   5.81726685306E+05; -0.552347     ; 0.380935     
   5.84442601461E+05; -0.543617     ; 0.390098     
   5.87171197454E+05; -0.535369     ; 0.399584     
   5.89912532485E+05; -0.527163     ; 0.408778     
   5.92666666028E+05; -0.518749     ; 0.417595     
   5.95433657835E+05; -0.510211     ; 0.426923     
   5.98213567940E+05; -0.501302     ; 0.435459     
   6.01006456652E+05; -0.492781     ; 0.444219     
   6.03812384566E+05; -0.482954     ; 0.452376     
   6.06631412558E+05; -0.474189     ; 0.460614     
   6.09463601789E+05; -0.46489      ; 0.468937     
   6.12309013704E+05; -0.455402     ; 0.47656      
   6.15167710037E+05; -0.445606     ; 0.484967     
   6.18039752809E+05; -0.435276     ; 0.492052     
   6.20925204330E+05; -0.42519      ; 0.50004      
   6.23824127202E+05; -0.415341     ; 0.507435     
   6.26736584319E+05; -0.404693     ; 0.514119     
   6.29662638868E+05; -0.394265     ; 0.521552     
   6.32602354333E+05; -0.383142     ; 0.528222     
   6.35555794491E+05; -0.372321     ; 0.534803     
   6.38523023420E+05; -0.360943     ; 0.541399     
   6.41504105496E+05; -0.350204     ; 0.548045     
   6.44499105394E+05; -0.339497     ; 0.554206     
   6.47508088094E+05; -0.327763     ; 0.560144     
   6.50531118876E+05; -0.316426     ; 0.5658       
   6.53568263328E+05; -0.304761     ; 0.571237     
   6.56619587343E+05; -0.293192     ; 0.576942     
   6.59685157119E+05; -0.281215     ; 0.58179      
   6.62765039168E+05; -0.269327     ; 0.58643      
   6.65859300308E+05; -0.257265     ; 0.591349     
   6.68968007672E+05; -0.244557     ; 0.595652     
   6.72091228705E+05; -0.232282     ; 0.599977     
   6.75229031167E+05; -0.219276     ; 0.604256     
   6.78381483135E+05; -0.206787     ; 0.608186     
   6.81548653003E+05; -0.194526     ; 0.612199     
   6.84730609485E+05; -0.181596     ; 0.615569     
   6.87927421615E+05; -0.168877     ; 0.618636     
   6.91139158750E+05; -0.156367     ; 0.62182      
   6.94365890570E+05; -0.143337     ; 0.624263     
   6.97607687083E+05; -0.129786     ; 0.626037     
   7.00864618619E+05; -0.116857     ; 0.628667     
   7.04136755841E+05; -0.103163     ; 0.630813     
   7.07424169739E+05; -0.0894452    ; 0.632635     
   7.10726931637E+05; -0.0760529    ; 0.63413      
   7.14045113188E+05; -0.0629947    ; 0.635286     
   7.17378786384E+05; -0.0497043    ; 0.636457     
   7.20728023550E+05; -0.0359084    ; 0.63677      
   7.24092897350E+05; -0.0224733    ; 0.637362     
   7.27473480788E+05; -0.00870884   ; 0.637161     
   7.30869847206E+05;  0.0051355    ; 0.637167     
   7.34282070291E+05;  0.0186397    ; 0.636672     
   7.37710224074E+05;  0.0322544    ; 0.636007     
   7.41154382930E+05;  0.0461712    ; 0.635171     
   7.44614621583E+05;  0.0605342    ; 0.633691     
   7.48091015104E+05;  0.0740911    ; 0.632608     
   7.51583638916E+05;  0.0874386    ; 0.631069     
   7.55092568793E+05;  0.101487     ; 0.629064     
   7.58617880864E+05;  0.114993     ; 0.626197     
   7.62159651613E+05;  0.128797     ; 0.623799     
   7.65717957881E+05;  0.142622     ; 0.62051      
   7.69292876866E+05;  0.156723     ; 0.616799     
   7.72884486130E+05;  0.170301     ; 0.61339      
   7.76492863594E+05;  0.182127     ; 0.610229     
   7.80118087545E+05;  0.197735     ; 0.605859     
   7.83760236633E+05;  0.211415     ; 0.601314     
   7.87419389878E+05;  0.224583     ; 0.596401     
   7.91095626666E+05;  0.238327     ; 0.591458     
   7.94789026757E+05;  0.252044     ; 0.586383     
   7.98499670281E+05;  0.264884     ; 0.58064      
   8.02227637742E+05;  0.277533     ; 0.574916     
   8.05973010021E+05;  0.291563     ; 0.567984     
   8.09735868376E+05;  0.304498     ; 0.56222      
   8.13516294445E+05;  0.317173     ; 0.554967     
   8.17314370245E+05;  0.330184     ; 0.547656     
   8.21130178180E+05;  0.342535     ; 0.540319     
   8.24963801035E+05;  0.355199     ; 0.532166     
   8.28815321983E+05;  0.367666     ; 0.5242       
   8.32684824584E+05;  0.380397     ; 0.515694     
   8.36572392791E+05;  0.392706     ; 0.507256     
   8.40478110946E+05;  0.40465      ; 0.498286     
   8.44402063787E+05;  0.415882     ; 0.488841     
   8.48344336445E+05;  0.427663     ; 0.479553     
   8.52305014451E+05;  0.439281     ; 0.468814     
   8.56284183734E+05;  0.450709     ; 0.458829     
   8.60281930626E+05;  0.461851     ; 0.448518     
   8.64298341858E+05;  0.472815     ; 0.437859     
   8.68333504570E+05;  0.483298     ; 0.426914     
   8.72387506307E+05;  0.493582     ; 0.41522      
   8.76460435023E+05;  0.503896     ; 0.403485     
   8.80552379083E+05;  0.51394      ; 0.391267     
   8.84663427264E+05;  0.52406      ; 0.379578     
   8.88793668757E+05;  0.533345     ; 0.366686     
   8.92943193172E+05;  0.542508     ; 0.35404      
   8.97112090533E+05;  0.551345     ; 0.341016     
   9.01300451289E+05;  0.559707     ; 0.327776     
   9.05508366308E+05;  0.568064     ; 0.31421      
   9.09735926883E+05;  0.576154     ; 0.300136     
   9.13983224734E+05;  0.584146     ; 0.286029     
   9.18250352008E+05;  0.591588     ; 0.271858     
   9.22537401284E+05;  0.598997     ; 0.257312     
   9.26844465572E+05;  0.605467     ; 0.242711     
   9.31171638315E+05;  0.611679     ; 0.227281     
   9.35519013396E+05;  0.617532     ; 0.212329     
   9.39886685132E+05;  0.623575     ; 0.196487     
   9.44274748283E+05;  0.628897     ; 0.180665     
   9.48683298050E+05;  0.633652     ; 0.16551      
   9.53112430081E+05;  0.638297     ; 0.148878     
   9.57562240467E+05;  0.642441     ; 0.13252      
   9.62032825750E+05;  0.645765     ; 0.115756     
   9.66524282922E+05;  0.649592     ; 0.0997682    
   9.71036709427E+05;  0.652413     ; 0.0827705    
   9.75570203167E+05;  0.655026     ; 0.0637551    
   9.80124862497E+05;  0.656617     ; 0.0488304    
   9.84700786234E+05;  0.658164     ; 0.0318586    
   9.89298073655E+05;  0.659289     ; 0.0144309    
   9.93916824501E+05;  0.660066     ;-0.00332817   
   9.98557138979E+05;  0.659866     ;-0.020139     
   1.00321911776E+06;  0.659722     ;-0.0386601    
   1.00790286200E+06;  0.658955     ;-0.0560244    
   1.01260847330E+06;  0.65777      ;-0.0738144    
   1.01733605376E+06;  0.65578      ;-0.0912944    
   1.02208570595E+06;  0.653115     ;-0.108805     
   1.02685753291E+06;  0.6505       ;-0.126891     
   1.03165163817E+06;  0.64707      ;-0.1449       
   1.03646812574E+06;  0.643117     ;-0.162655     
   1.04130710012E+06;  0.639026     ;-0.179439     
   1.04616866629E+06;  0.633828     ;-0.197578     
   1.05105292973E+06;  0.627982     ;-0.215555     
   1.05595999641E+06;  0.622052     ;-0.233348     
   1.06088997278E+06;  0.615506     ;-0.250603     
   1.06584296581E+06;  0.60875      ;-0.267948     
   1.07081908295E+06;  0.60112      ;-0.284769     
   1.07581843216E+06;  0.592532     ;-0.301952     
   1.08084112191E+06;  0.583659     ;-0.318865     
   1.08588726117E+06;  0.574555     ;-0.33574      
   1.09095695941E+06;  0.564825     ;-0.352178     
   1.09605032663E+06;  0.554356     ;-0.368735     
   1.10116747333E+06;  0.543408     ;-0.384737     
   1.10630851053E+06;  0.531977     ;-0.400232     
   1.11147354977E+06;  0.520329     ;-0.414337     
   1.11666270311E+06;  0.506972     ;-0.430962     
   1.12187608312E+06;  0.493772     ;-0.445527     
   1.12711380292E+06;  0.479851     ;-0.460082     
   1.13237597614E+06;  0.465555     ;-0.474133     
   1.13766271695E+06;  0.450581     ;-0.488023     
   1.14297414004E+06;  0.435379     ;-0.501354     
   1.14831036066E+06;  0.420198     ;-0.513956     
   1.15367149457E+06;  0.403682     ;-0.526263     
   1.15905765809E+06;  0.38658      ;-0.537855     
   1.16446896807E+06;  0.369653     ;-0.549222     
   1.16990554191E+06;  0.351601     ;-0.560726     
   1.17536749757E+06;  0.333565     ;-0.570672     
   1.18085495355E+06;  0.315493     ;-0.580894     
   1.18636802889E+06;  0.296021     ;-0.589756     
   1.19190684321E+06;  0.276864     ;-0.598349     
   1.19747151667E+06;  0.257277     ;-0.606426     
   1.20306217002E+06;  0.23709      ;-0.613067     
   1.20867892452E+06;  0.216142     ;-0.619866     
   1.21432190206E+06;  0.195789     ;-0.6261       
   1.21999122505E+06;  0.174269     ;-0.631176     
   1.22568701649E+06;  0.153439     ;-0.635302     
   1.23140939996E+06;  0.131963     ;-0.638785     
   1.23715849961E+06;  0.109965     ;-0.641813     
   1.24293444017E+06;  0.0876536    ;-0.644249     
   1.24873734695E+06;  0.0654224    ;-0.645927     
   1.25456734585E+06;  0.0434735    ;-0.646253     
   1.26042456335E+06;  0.0210103    ;-0.646026     
   1.26630912653E+06; -0.00214428   ;-0.645235     
   1.27222116306E+06; -0.0240708    ;-0.643281     
   1.27816080120E+06; -0.0465394    ;-0.640486     
   1.28412816982E+06; -0.0691832    ;-0.636518     
   1.29012339839E+06; -0.0914849    ;-0.632674     
   1.29614661697E+06; -0.114221     ;-0.626734     
   1.30219795624E+06; -0.135979     ;-0.620794     
   1.30827754749E+06; -0.15838      ;-0.613906     
   1.31438552262E+06; -0.18038      ;-0.605433     
   1.32052201414E+06; -0.202043     ;-0.596638     
   1.32668715520E+06; -0.223467     ;-0.587283     
   1.33288107954E+06; -0.24435      ;-0.576504     
   1.33910392155E+06; -0.265707     ;-0.564937     
   1.34535581624E+06; -0.285917     ;-0.552628     
   1.35163689924E+06; -0.306341     ;-0.539974     
   1.35794730683E+06; -0.325255     ;-0.525799     
   1.36428717592E+06; -0.344011     ;-0.511308     
   1.37065664404E+06; -0.362547     ;-0.495454     
   1.37705584940E+06; -0.380679     ;-0.479321     
   1.38348493083E+06; -0.397426     ;-0.46204      
   1.38994402780E+06; -0.413798     ;-0.443905     
   1.39643328046E+06; -0.429691     ;-0.425117     
   1.40295282959E+06; -0.445022     ;-0.405995     
   1.40950281664E+06; -0.459836     ;-0.386383     
   1.41608338371E+06; -0.472929     ;-0.366054     
   1.42269467357E+06; -0.486009     ;-0.344525     
   1.42933682967E+06; -0.497301     ;-0.322379     
   1.43600999609E+06; -0.508653     ;-0.300403     
   1.44271431763E+06; -0.518596     ;-0.277342     
   1.44944993974E+06; -0.527826     ;-0.254147     
   1.45621700855E+06; -0.535774     ;-0.230686     
   1.46301567087E+06; -0.543688     ;-0.207024     
   1.46984607422E+06; -0.549382     ;-0.182161     
   1.47670836676E+06; -0.554547     ;-0.157557     
   1.48360269740E+06; -0.558532     ;-0.132583     
   1.49052921570E+06; -0.561502     ;-0.107504     
   1.49748807195E+06; -0.563551     ;-0.0818904    
   1.50447941711E+06; -0.564143     ;-0.0567825    
   1.51150340287E+06; -0.564649     ;-0.0310198    
   1.51856018161E+06; -0.562444     ;-0.0056005    
   1.52564990645E+06; -0.560317     ; 0.0198356    
   1.53277273119E+06; -0.556267     ; 0.0451546    
   1.53992881038E+06; -0.551493     ; 0.0706105    
   1.54711829925E+06; -0.54595      ; 0.0956276    
   1.55434135380E+06; -0.538686     ; 0.12054      
   1.56159813074E+06; -0.530634     ; 0.144936     
   1.56888878750E+06; -0.521327     ; 0.16913      
   1.57621348226E+06; -0.511326     ; 0.192977     
   1.58357237393E+06; -0.499627     ; 0.216283     
   1.59096562217E+06; -0.487192     ; 0.239308     
   1.59839338738E+06; -0.473739     ; 0.261378     
   1.60585583071E+06; -0.459211     ; 0.283192     
   1.61335311406E+06; -0.443797     ; 0.304096     
   1.62088540009E+06; -0.427308     ; 0.324243     
   1.62845285222E+06; -0.409676     ; 0.344046     
   1.63605563463E+06; -0.391736     ; 0.362854     
   1.64369391226E+06; -0.372206     ; 0.380933     
   1.65136785083E+06; -0.352648     ; 0.397809     
   1.65907761684E+06; -0.331688     ; 0.414189     
   1.66682337755E+06; -0.309946     ; 0.429535     
   1.67460530100E+06; -0.28753      ; 0.443579     
   1.68242355604E+06; -0.264635     ; 0.456573     
   1.69027831229E+06; -0.240943     ; 0.468906     
   1.69816974015E+06; -0.21666      ; 0.47977      
   1.70609801085E+06; -0.19184      ; 0.48974      
   1.71406329638E+06; -0.166848     ; 0.498402     
   1.72206576956E+06; -0.140925     ; 0.505794     
   1.73010560400E+06; -0.115075     ; 0.511874     
   1.73818297415E+06; -0.0889196    ; 0.517198     
   1.74629805523E+06; -0.0621138    ; 0.520786     
   1.75445102331E+06; -0.0355323    ; 0.523287     
   1.76264205528E+06; -0.00871214   ; 0.524463     
   1.77087132885E+06;  0.0184066    ; 0.524235     
   1.77913902254E+06;  0.0453192    ; 0.522984     
   1.78744531575E+06;  0.0721875    ; 0.520042     
   1.79579038867E+06;  0.0993157    ; 0.5161       
   1.80417442236E+06;  0.12582      ; 0.510534     
   1.81259759871E+06;  0.152261     ; 0.503873     
   1.82106010047E+06;  0.178304     ; 0.495757     
   1.82956211125E+06;  0.204017     ; 0.48658      
   1.83810381549E+06;  0.229363     ; 0.475699     
   1.84668539851E+06;  0.254143     ; 0.463852     
   1.85530704650E+06;  0.27858      ; 0.450668     
   1.86396894651E+06;  0.302226     ; 0.436183     
   1.87267128646E+06;  0.325231     ; 0.420489     
   1.88141425515E+06;  0.347149     ; 0.403608     
   1.89019804228E+06;  0.368564     ; 0.385672     
   1.89902283840E+06;  0.388889     ; 0.366445     
   1.90788883499E+06;  0.408381     ; 0.346203     
   1.91679622438E+06;  0.426804     ; 0.324941     
   1.92574519984E+06;  0.444028     ; 0.302771     
   1.93473595552E+06;  0.460333     ; 0.279426     
   1.94376868647E+06;  0.475361     ; 0.255305     
   1.95284358867E+06;  0.489187     ; 0.23036      
   1.96196085901E+06;  0.501548     ; 0.204293     
   1.97112069528E+06;  0.512616     ; 0.178185     
   1.98032329621E+06;  0.52221      ; 0.151146     
   1.98956886147E+06;  0.530591     ; 0.123379     
   1.99885759164E+06;  0.537503     ; 0.0951965    
   2.00818968825E+06;  0.54289      ; 0.0664125    
   2.01756535375E+06;  0.546453     ; 0.0376618    
   2.02698479156E+06;  0.548595     ; 0.00817323   
   2.03644820605E+06;  0.548945     ;-0.0212506    
   2.04595580252E+06;  0.547952     ;-0.0506699    
   2.05550778725E+06;  0.545379     ;-0.0802884    
   2.06510436748E+06;  0.540784     ;-0.110075     
   2.07474575141E+06;  0.534461     ;-0.139211     
   2.08443214821E+06;  0.526612     ;-0.167887     
   2.09416376803E+06;  0.517866     ;-0.196966     
   2.10394082202E+06;  0.506328     ;-0.225127     
   2.11376352229E+06;  0.493182     ;-0.252642     
   2.12363208194E+06;  0.47842      ;-0.279814     
   2.13354671509E+06;  0.462362     ;-0.305773     
   2.14350763684E+06;  0.444738     ;-0.331003     
   2.15351506329E+06;  0.425597     ;-0.355308     
   2.16356921157E+06;  0.405058     ;-0.378444     
   2.17367029980E+06;  0.382585     ;-0.400844     
   2.18381854713E+06;  0.358881     ;-0.421166     
   2.19401417374E+06;  0.334159     ;-0.440239     
   2.20425740082E+06;  0.308518     ;-0.458468     
   2.21454845061E+06;  0.281266     ;-0.475007     
   2.22488754638E+06;  0.252662     ;-0.489789     
   2.23527491245E+06;  0.223318     ;-0.502755     
   2.24571077416E+06;  0.193103     ;-0.513896     
   2.25619535795E+06;  0.162031     ;-0.523278     
   2.26672889126E+06;  0.13056      ;-0.530509     
   2.27731160265E+06;  0.0980548    ;-0.536031     
   2.28794372169E+06;  0.0654535    ;-0.539379     
   2.29862547907E+06;  0.0325447    ;-0.540771     
   2.30935710654E+06; -0.000620418  ;-0.539701     
   2.32013883691E+06; -0.0337862    ;-0.536746     
   2.33097090411E+06; -0.0665087    ;-0.531326     
   2.34185354315E+06; -0.0991691    ;-0.523913     
   2.35278699013E+06; -0.131428     ;-0.514623     
   2.36377148226E+06; -0.162976     ;-0.502866     
   2.37480725785E+06; -0.19402      ;-0.489006     
   2.38589455633E+06; -0.223807     ;-0.472832     
   2.39703361825E+06; -0.252812     ;-0.455187     
   2.40822468528E+06; -0.281008     ;-0.434989     
   2.41946800021E+06; -0.307202     ;-0.413693     
   2.43076380698E+06; -0.332129     ;-0.389686     
   2.44211235065E+06; -0.35531      ;-0.364031     
   2.45351387743E+06; -0.377115     ;-0.337065     
   2.46496863470E+06; -0.396728     ;-0.30865      
   2.47647687096E+06; -0.414224     ;-0.278404     
   2.48803883590E+06; -0.429873     ;-0.24705      
   2.49965478036E+06; -0.443455     ;-0.214894     
   2.51132495636E+06; -0.45457      ;-0.181817     
   2.52304961708E+06; -0.46331      ;-0.147605     
   2.53482901691E+06; -0.469614     ;-0.112765     
   2.54666341139E+06; -0.473452     ;-0.0779802    
   2.55855305729E+06; -0.474816     ;-0.0425464    
   2.57049821256E+06; -0.473629     ;-0.00699924   
   2.58249913636E+06; -0.469793     ; 0.0280998    
   2.59455608905E+06; -0.463516     ; 0.0630564    
   2.60666933222E+06; -0.454409     ; 0.097595     
   2.61883912867E+06; -0.442785     ; 0.131416     
   2.63106574243E+06; -0.428957     ; 0.164273     
   2.64334943877E+06; -0.412935     ; 0.196091     
   2.65569048418E+06; -0.393831     ; 0.226934     
   2.66808914643E+06; -0.373167     ; 0.256007     
   2.68054569449E+06; -0.349967     ; 0.283438     
   2.69306039863E+06; -0.325007     ; 0.309404     
   2.70563353035E+06; -0.297716     ; 0.333365     
   2.71826536245E+06; -0.268814     ; 0.354954     
   2.73095616896E+06; -0.238556     ; 0.374731     
   2.74370622524E+06; -0.206614     ; 0.39168      
   2.75651580790E+06; -0.17349      ; 0.40665      
   2.76938519486E+06; -0.139029     ; 0.419211     
   2.78231466531E+06; -0.103989     ; 0.428556     
   2.79530449978E+06; -0.0683518    ; 0.435393     
   2.80835498008E+06; -0.0321723    ; 0.439376     
   2.82146638936E+06;  0.00467038   ; 0.440575     
   2.83463901207E+06;  0.0410929    ; 0.438929     
   2.84787313400E+06;  0.0774882    ; 0.4343       
   2.86116904228E+06;  0.113872     ; 0.42703      
   2.87452702537E+06;  0.149439     ; 0.416709     
   2.88794737307E+06;  0.183845     ; 0.403608     
   2.90143037655E+06;  0.217366     ; 0.387967     
   2.91497632834E+06;  0.249581     ; 0.369377     
   2.92858552231E+06;  0.280446     ; 0.348171     
   2.94225825374E+06;  0.309378     ; 0.324555     
   2.95599481925E+06;  0.336343     ; 0.299098     
   2.96979551687E+06;  0.361441     ; 0.270772     
   2.98366064602E+06;  0.383951     ; 0.24067      
   2.99759050750E+06;  0.404417     ; 0.209042     
   3.01158540354E+06;  0.42149      ; 0.17516      
   3.02564563777E+06;  0.436155     ; 0.140091     
   3.03977151522E+06;  0.447744     ; 0.103965     
   3.05396334236E+06;  0.456522     ; 0.0665889    
   3.06822142711E+06;  0.461921     ; 0.0285549    
   3.08254607879E+06;  0.464145     ;-0.00973376   
   3.09693760819E+06;  0.463182     ;-0.0482905    
   3.11139632753E+06;  0.458728     ;-0.0867487    
   3.12592255052E+06;  0.451248     ;-0.124797     
   3.14051659231E+06;  0.440488     ;-0.162169     
   3.15517876952E+06;  0.426226     ;-0.19845      
   3.16990940026E+06;  0.408883     ;-0.233601     
   3.18470880411E+06;  0.388465     ;-0.267199     
   3.19957730217E+06;  0.365253     ;-0.299218     
   3.21451521700E+06;  0.339029     ;-0.32893      
   3.22952287271E+06;  0.310128     ;-0.356197     
   3.24460059488E+06;  0.279063     ;-0.381259     
   3.25974871064E+06;  0.245643     ;-0.403091     
   3.27496754864E+06;  0.209798     ;-0.422264     
   3.29025743906E+06;  0.172768     ;-0.437991     
   3.30561871362E+06;  0.133973     ;-0.449947     
   3.32105170559E+06;  0.094313     ;-0.458747     
   3.33655674981E+06;  0.0536996    ;-0.463616     
   3.35213418266E+06;  0.0130835    ;-0.465003     
   3.36778434211E+06; -0.0280486    ;-0.462135     
   3.38350756769E+06; -0.0688818    ;-0.455943     
   3.39930420053E+06; -0.108533     ;-0.445996     
   3.41517458335E+06; -0.14759      ;-0.4316       
   3.43111906047E+06; -0.185117     ;-0.413776     
   3.44713797781E+06; -0.221028     ;-0.392509     
   3.46323168291E+06; -0.254526     ;-0.36796      
   3.47940052493E+06; -0.285861     ;-0.339863     
   3.49564485467E+06; -0.314301     ;-0.30883      
   3.51196502455E+06; -0.339605     ;-0.275273     
   3.52836138867E+06; -0.361454     ;-0.239689     
   3.54483430273E+06; -0.379838     ;-0.201469     
   3.56138412413E+06; -0.394481     ;-0.16178      
   3.57801121194E+06; -0.404923     ;-0.120778     
   3.59471592688E+06; -0.411486     ;-0.0785593    
   3.61149863138E+06; -0.413625     ;-0.0363625    
   3.62835968954E+06; -0.411493     ; 0.00628236   
   3.64529946718E+06; -0.405274     ; 0.0482189    
   3.66231833181E+06; -0.394912     ; 0.0898549    
   3.67941665268E+06; -0.380342     ; 0.129936     
   3.69659480073E+06; -0.361341     ; 0.168164     
   3.71385314866E+06; -0.338518     ; 0.204897     
   3.73119207091E+06; -0.31246      ; 0.238684     
   3.74861194364E+06; -0.282804     ; 0.269769     
   3.76611314479E+06; -0.249966     ; 0.297566     
   3.78369605406E+06; -0.214677     ; 0.322143     
   3.80136105293E+06; -0.176636     ; 0.342659     
   3.81910852465E+06; -0.136858     ; 0.359209     
   3.83693885425E+06; -0.0952761    ; 0.371592     
   3.85485242859E+06; -0.0526142    ; 0.379671     
   3.87284963629E+06; -0.00911875   ; 0.382866     
   3.89093086784E+06;  0.0344812    ; 0.381505     
   3.90909651550E+06;  0.0774073    ; 0.37537      
   3.92734697339E+06;  0.119898     ; 0.364781     
   3.94568263748E+06;  0.160866     ; 0.349652     
   3.96410390555E+06;  0.200131     ; 0.330036     
   3.98261117728E+06;  0.23728      ; 0.306399     
   4.00120485418E+06;  0.271256     ; 0.278454     
   4.01988533967E+06;  0.302474     ; 0.246763     
   4.03865303902E+06;  0.329963     ; 0.212098     
   4.05750835941E+06;  0.353444     ; 0.174367     
   4.07645170992E+06;  0.372615     ; 0.134016     
   4.09548350154E+06;  0.387091     ; 0.0916064    
   4.11460414717E+06;  0.396861     ; 0.0476728    
   4.13381406165E+06;  0.401377     ; 0.00296398   
   4.15311366174E+06;  0.400812     ;-0.0421463    
   4.17250336617E+06;  0.394959     ;-0.0871687    
   4.19198359560E+06;  0.38397      ;-0.131358     
   4.21155477268E+06;  0.367889     ;-0.174059     
   4.23121732200E+06;  0.346827     ;-0.214748     
   4.25097167017E+06;  0.32102      ;-0.252738     
   4.27081824576E+06;  0.290611     ;-0.287321     
   4.29075747935E+06;  0.256563     ;-0.318415     
   4.31078980355E+06;  0.21869      ;-0.345195     
   4.33091565296E+06;  0.177658     ;-0.367225     
   4.35113546423E+06;  0.134296     ;-0.383956     
   4.37144967604E+06;  0.0889514    ;-0.395752     
   4.39185872911E+06;  0.042707     ;-0.401692     
   4.41236306624E+06; -0.00422372   ;-0.401918     
   4.43296313227E+06; -0.0509555    ;-0.396446     
   4.45365937415E+06; -0.096733     ;-0.385055     
   4.47445224088E+06; -0.141013     ;-0.367961     
   4.49534218358E+06; -0.182532     ;-0.345775     
   4.51632965547E+06; -0.221508     ;-0.318046     
   4.53741511189E+06; -0.256356     ;-0.285766     
   4.55859901030E+06; -0.286891     ;-0.24939      
   4.57988181030E+06; -0.312688     ;-0.209342     
   4.60126397362E+06; -0.333258     ;-0.16593      
   4.62274596417E+06; -0.348081     ;-0.120281     
   4.64432824802E+06; -0.356543     ;-0.0732715    
   4.66601129340E+06; -0.35941      ;-0.0253894    
   4.68779557074E+06; -0.355574     ; 0.0226597    
   4.70968155267E+06; -0.345755     ; 0.0697821    
   4.73166971401E+06; -0.329975     ; 0.115075     
   4.75376053181E+06; -0.308065     ; 0.158439     
   4.77595448534E+06; -0.280796     ; 0.197931     
   4.79825205612E+06; -0.248683     ; 0.233928     
   4.82065372791E+06; -0.211732     ; 0.26516      
   4.84315998672E+06; -0.171098     ; 0.291445     
   4.86577132084E+06; -0.127284     ; 0.312318     
   4.88848822084E+06; -0.080784     ; 0.326959     
   4.91131117957E+06; -0.0329443    ; 0.335281     
   4.93424069219E+06;  0.0158195    ; 0.336998     
   4.95727725617E+06;  0.0645874    ; 0.332157     
   4.98042137131E+06;  0.112161     ; 0.320711     
   5.00367353973E+06;  0.158093     ; 0.303124     
   5.02703426589E+06;  0.200904     ; 0.278966     
   5.05050405663E+06;  0.240239     ; 0.249068     
   5.07408342114E+06;  0.275161     ; 0.214132     
   5.09777287099E+06;  0.304955     ; 0.174385     
   5.12157292012E+06;  0.329162     ; 0.130696     
   5.14548408490E+06;  0.346615     ; 0.0844006    
   5.16950688410E+06;  0.357858     ; 0.0355982    
   5.19364183891E+06;  0.361683     ;-0.014467     
   5.21788947294E+06;  0.358633     ;-0.0645424    
   5.24225031227E+06;  0.348143     ;-0.113774     
   5.26672488541E+06;  0.330818     ;-0.161181     
   5.29131372336E+06;  0.306773     ;-0.205574     
   5.31601735960E+06;  0.276413     ;-0.246415     
   5.34083633007E+06;  0.240387     ;-0.282288     
   5.36577117324E+06;  0.199139     ;-0.312565     
   5.39082243010E+06;  0.154003     ;-0.336371     
   5.41599064413E+06;  0.105593     ;-0.353443     
   5.44127636139E+06;  0.0552888    ;-0.362889     
   5.46668013045E+06;  0.00373157   ;-0.364842     
   5.49220250247E+06; -0.0474355    ;-0.358671     
   5.51784403118E+06; -0.0972659    ;-0.344901     
   5.54360527288E+06; -0.144616     ;-0.323605     
   5.56948678648E+06; -0.187784     ;-0.295393     
   5.59548913349E+06; -0.226338     ;-0.260951     
   5.62161287805E+06; -0.259213     ;-0.220678     
   5.64785858693E+06; -0.285398     ;-0.175846     
   5.67422682955E+06; -0.304257     ;-0.127586     
   5.70071817798E+06; -0.315079     ;-0.0765382    
   5.72733320697E+06; -0.317954     ;-0.0245952    
   5.75407249394E+06; -0.312404     ; 0.02713      
   5.78093661903E+06; -0.298761     ; 0.0775886    
   5.80792616507E+06; -0.276986     ; 0.125354     
   5.83504171760E+06; -0.248168     ; 0.168783     
   5.86228386493E+06; -0.212219     ; 0.207139     
   5.88965319808E+06; -0.170797     ; 0.239127     
   5.91715031085E+06; -0.124397     ; 0.264143     
   5.94477579980E+06; -0.0745765    ; 0.281064     
   5.97253026429E+06; -0.0224535    ; 0.289757     
   6.00041430647E+06;  0.0303794    ; 0.289533     
   6.02842853130E+06;  0.0825992    ; 0.280542     
   6.05657354656E+06;  0.132771     ; 0.262748     
   6.08484996288E+06;  0.179383     ; 0.236979     
   6.11325839373E+06;  0.220921     ; 0.203624     
   6.14179945545E+06;  0.256608     ; 0.163476     
   6.17047376725E+06;  0.284726     ; 0.117837     
   6.19928195125E+06;  0.304946     ; 0.0677189    
   6.22822463245E+06;  0.316111     ; 0.0149096    
   6.25730243878E+06;  0.318048     ;-0.0391122    
   6.28651600111E+06;  0.310556     ;-0.0927897    
   6.31586595324E+06;  0.293852     ;-0.144197     
   6.34535293193E+06;  0.268389     ;-0.192398     
   6.37497757692E+06;  0.234864     ;-0.235541     
   6.40474053094E+06;  0.194348     ;-0.271978     
   6.43464243971E+06;  0.147917     ;-0.300792     
   6.46468395198E+06;  0.0968535    ;-0.32086      
   6.49486571950E+06;  0.0432776    ;-0.331912     
   6.52518839710E+06; -0.0117412    ;-0.333153     
   6.55565264265E+06; -0.0659219    ;-0.324261     
   6.58625911707E+06; -0.117633     ;-0.306056     
   6.61700848441E+06; -0.165374     ;-0.278741     
   6.64790141178E+06; -0.207225     ;-0.243261     
   6.67893856942E+06; -0.24197      ;-0.200881     
   6.71012063072E+06; -0.268452     ;-0.152769     
   6.74144827217E+06; -0.285873     ;-0.10074      
   6.77292217346E+06; -0.293264     ;-0.0463985    
   6.80454301742E+06; -0.290601     ; 0.00853355   
   6.83631149009E+06; -0.27793      ; 0.0618754    
   6.86822828072E+06; -0.255505     ; 0.111997     
   6.90029408174E+06; -0.224103     ; 0.157173     
   6.93250958885E+06; -0.184609     ; 0.195731     
   6.96487550099E+06; -0.138667     ; 0.226161     
   6.99739252035E+06; -0.0871882    ; 0.247047     
   7.03006135241E+06; -0.0331394    ; 0.25789      
   7.06288270594E+06;  0.0225623    ; 0.25802      
   7.09585729302E+06;  0.0772788    ; 0.247389     
   7.12898582905E+06;  0.129194     ; 0.226081     
   7.16226903277E+06;  0.175793     ; 0.195113     
   7.19570762629E+06;  0.215407     ; 0.154941     
   7.22930233508E+06;  0.246381     ; 0.108063     
   7.26305388799E+06;  0.267283     ; 0.0553741    
   7.29696301729E+06;  0.277287     ;-0.000712493  
   7.33103045865E+06;  0.275224     ;-0.0576401    
   7.36525695118E+06;  0.261732     ;-0.113274     
   7.39964323746E+06;  0.236978     ;-0.165023     
   7.43419006352E+06;  0.201821     ;-0.21045      
   7.46889817886E+06;  0.157926     ;-0.247713     
   7.50376833650E+06;  0.107496     ;-0.274996     
   7.53880129297E+06;  0.0520883    ;-0.291023     
   7.57399780834E+06; -0.00529159   ;-0.295346     
   7.60935864621E+06; -0.0621822    ;-0.287191     
   7.64488457376E+06; -0.116337     ;-0.267126     
   7.68057636174E+06; -0.164644     ;-0.236659     
   7.71643478451E+06; -0.205425     ;-0.196325     
   7.75246062004E+06; -0.236608     ;-0.148641     
   7.78865464993E+06; -0.257138     ;-0.095508     
   7.82501765943E+06; -0.266003     ;-0.0395114    
   7.86155043747E+06; -0.262725     ; 0.0170082    
   7.89825377664E+06; -0.24755      ; 0.0717019    
   7.93512847324E+06; -0.22133      ; 0.121887     
   7.97217532729E+06; -0.184865     ; 0.165417     
   8.00939514255E+06; -0.139954     ; 0.200135     
   8.04678872653E+06; -0.0886735    ; 0.224243     
   8.08435689049E+06; -0.0332159    ; 0.237161     
   8.12210044951E+06;  0.0238457    ; 0.23743      
   8.16002022245E+06;  0.0799654    ; 0.225536     
   8.19811703201E+06;  0.13223      ; 0.201257     
   8.23639170472E+06;  0.178015     ; 0.165795     
   8.27484507097E+06;  0.214672     ; 0.120652     
   8.31347796503E+06;  0.240326     ; 0.0681118    
   8.35229122506E+06;  0.253156     ; 0.0109727    
   8.39128569315E+06;  0.252528     ;-0.0476431    
   8.43046221530E+06;  0.238466     ;-0.104824     
   8.46982164147E+06;  0.211237     ;-0.157095     
   8.50936482559E+06;  0.172288     ;-0.201635     
   8.54909262557E+06;  0.123931     ;-0.235776     
   8.58900590333E+06;  0.0688367    ;-0.257465     
   8.62910552481E+06;  0.0101547    ;-0.265155     
   8.66939236000E+06; -0.0487635    ;-0.258471     
   8.70986728294E+06; -0.104219     ;-0.238132     
   8.75053117177E+06; -0.153011     ;-0.204529     
   8.79138490870E+06; -0.191982     ;-0.160388     
   8.83242938010E+06; -0.218946     ;-0.108361     
   8.87366547644E+06; -0.232278     ;-0.0514232    
   8.91509409236E+06; -0.231533     ; 0.00709955   
   8.95671612669E+06; -0.216655     ; 0.0633003    
   8.99853248244E+06; -0.188616     ; 0.114051     
   9.04054406684E+06; -0.148824     ; 0.156495     
   9.08275179136E+06; -0.099985     ; 0.187999     
   9.12515657172E+06; -0.0450093    ; 0.206576     
   9.16775932792E+06;  0.0128685    ; 0.210808     
   9.21056098424E+06;  0.0702267    ; 0.200799     
   9.25356246931E+06;  0.123207     ; 0.176621     
   9.29676471606E+06;  0.168961     ; 0.139808     
   9.34016866179E+06;  0.20411      ; 0.0924516    
   9.38377524818E+06;  0.226022     ; 0.0374389    
   9.42758542129E+06;  0.233098     ;-0.0215352    
   9.47160013162E+06;  0.224774     ;-0.0805352    
   9.51582033409E+06;  0.20123      ;-0.135741     
   9.56024698809E+06;  0.163887     ;-0.182819     
   9.60488105748E+06;  0.115259     ;-0.218772     
   9.64972351063E+06;  0.0585634    ;-0.240194     
   9.69477532041E+06; -0.00160242   ;-0.24583      
   9.74003746425E+06; -0.0613245    ;-0.234963     
   9.78551092415E+06; -0.115887     ;-0.208739     
   9.83119668668E+06; -0.161185     ;-0.168441     
   9.87709574301E+06; -0.193878     ;-0.117293     
   9.92320908897E+06; -0.211486     ;-0.0601942    
   9.96953772500E+06; -0.213019     ;-5.61001E-05  
   1.00160826562E+07; -0.198343     ; 0.0580078    
   1.00628448925E+07; -0.168956     ; 0.109548     
   1.01098254483E+07; -0.1269       ; 0.151617     
   1.01570253429E+07; -0.0755351    ; 0.180781     
   1.02044456004E+07; -0.0182619    ; 0.195631     
   1.02520872496E+07;  0.0411979    ; 0.194295     
   1.02999513241E+07;  0.0984294    ; 0.177159     
   1.03480388622E+07;  0.149006     ; 0.145289     
   1.03963509075E+07;  0.189266     ; 0.100901     
   1.04448885078E+07;  0.215915     ; 0.0467373    
   1.04936527164E+07;  0.22678      ;-0.0127655    
   1.05426445912E+07;  0.220497     ;-0.0730323    
   1.05918651951E+07;  0.197567     ;-0.129347     
   1.06413155960E+07;  0.159466     ;-0.176528     
   1.06909968667E+07;  0.1089       ;-0.211222     
   1.07409100851E+07;  0.0509166    ;-0.229065     
   1.07910563342E+07; -0.00995046   ;-0.229418     
   1.08414367017E+07; -0.0677235    ;-0.211355     
   1.08920522808E+07; -0.117062     ;-0.176915     
   1.09429041697E+07; -0.15316      ;-0.128716     
   1.09939934715E+07; -0.172932     ;-0.072374     
   1.10453212948E+07; -0.174114     ;-0.0129699    
   1.10968887530E+07; -0.156824     ; 0.0435223    
   1.11486969650E+07; -0.122515     ; 0.091396     
   1.12007470548E+07; -0.075617     ; 0.126405     
   1.12530401516E+07; -0.0203749    ; 0.145216     
   1.13055773899E+07;  0.0384027    ; 0.145738     
   1.13583599097E+07;  0.094495     ; 0.128424     
   1.14113888560E+07;  0.142917     ; 0.0945393    
   1.14646653794E+07;  0.178915     ; 0.0468842    
   1.15181906357E+07;  0.198268     ;-0.00991607   
   1.15719657861E+07;  0.199462     ;-0.0705699    
   1.16259919974E+07;  0.181823     ;-0.128898     
   1.16802704417E+07;  0.14679      ;-0.179093     
   1.17348022966E+07;  0.0978868    ;-0.216032     
   1.17895887452E+07;  0.0394898    ;-0.236394     
   1.18446309761E+07; -0.0222354    ;-0.237229     
   1.18999301835E+07; -0.0810301    ;-0.21883      
   1.19554875671E+07; -0.13097      ;-0.182704     
   1.20113043323E+07; -0.16619      ;-0.133029     
   1.20673816901E+07; -0.183533     ;-0.0751493    
   1.21237208571E+07; -0.181218     ;-0.0146975    
   1.21803230557E+07; -0.159479     ; 0.0407829    
   1.22371895137E+07; -0.120976     ; 0.0857032    
   1.22943214651E+07; -0.0697936    ; 0.11483      
   1.23517201492E+07; -0.0125587    ; 0.125329     
   1.24093868115E+07;  0.0449066    ; 0.115723     
   1.24673227030E+07;  0.095529     ; 0.0872384    
   1.25255290806E+07;  0.133549     ; 0.0431935    
   1.25840072073E+07;  0.153719     ;-0.0118954    
   1.26427583516E+07;  0.153894     ;-0.0710168    
   1.27017837883E+07;  0.132862     ;-0.126707     
   1.27610847980E+07;  0.0931576    ;-0.171813     
   1.28206626672E+07;  0.0399351    ;-0.199986     
   1.28805186885E+07; -0.0204196    ;-0.20773      
   1.29406541604E+07; -0.0793876    ;-0.193755     
   1.30010703878E+07; -0.129867     ;-0.159879     
   1.30617686813E+07; -0.165572     ;-0.110155     
   1.31227503579E+07; -0.181144     ;-0.0516187    
   1.31840167405E+07; -0.175804     ; 0.00850664   
   1.32455691585E+07; -0.14933      ; 0.0626468    
   1.33074089471E+07; -0.106418     ; 0.104081     
   1.33695374481E+07; -0.0525408    ; 0.127998     
   1.34319560093E+07;  0.00627645   ; 0.131354     
   1.34946659850E+07;  0.0623211    ; 0.114113     
   1.35576687358E+07;  0.108441     ; 0.078537     
   1.36209656284E+07;  0.138854     ; 0.0288242    
   1.36845580362E+07;  0.149248     ;-0.0285903    
   1.37484473388E+07;  0.13818      ;-0.085767     
   1.38126349224E+07;  0.10615      ;-0.134585     
   1.38771221795E+07;  0.0577093    ;-0.167742     
   1.39419105092E+07; -0.000196007  ;-0.17996      
   1.40070013172E+07; -0.0584114    ;-0.168502     
   1.40723960157E+07; -0.107361     ;-0.13522      
   1.41380960233E+07; -0.139181     ;-0.0850125    
   1.42041027656E+07; -0.148904     ;-0.0261497    
   1.42704176745E+07; -0.134724     ; 0.0311641    
   1.43370421889E+07; -0.099636     ; 0.0781607    
   1.44039777541E+07; -0.0498002    ; 0.108615     
   1.44712258224E+07;  0.00804775   ; 0.118374     
   1.45387878528E+07;  0.065745     ; 0.10561      
   1.46066653111E+07;  0.114773     ; 0.0728558    
   1.46748596698E+07;  0.148816     ; 0.0241068    
   1.47433724086E+07;  0.162685     ;-0.0340515    
   1.48122050139E+07;  0.154149     ;-0.0936825    
   1.48813589790E+07;  0.123823     ;-0.146143     
   1.49508358042E+07;  0.0755856    ;-0.183441     
   1.50206369970E+07;  0.0168648    ;-0.199335     
   1.50907640716E+07; -0.0431392    ;-0.190523     
   1.51612185496E+07; -0.094331     ;-0.158975     
   1.52320019594E+07; -0.127273     ;-0.109345     
   1.53031158368E+07; -0.136912     ;-0.0515134    
   1.53745617247E+07; -0.121337     ; 0.00393333   
   1.54463411730E+07; -0.0845727    ; 0.0467971    
   1.55184557392E+07; -0.0336487    ; 0.069987     
   1.55909069877E+07;  0.0218224    ; 0.0688169    
   1.56636964904E+07;  0.0714436    ; 0.0445764    
   1.57368258266E+07;  0.106399     ; 0.00118705   
   1.58102965828E+07;  0.119788     ;-0.0529978    
   1.58841103531E+07;  0.108997     ;-0.108599     
   1.59582687388E+07;  0.0756708    ;-0.15492      
   1.60327733489E+07;  0.02482      ;-0.183352     
   1.61076257998E+07; -0.0336787    ;-0.187699     
   1.61828277154E+07; -0.0887717    ;-0.166079     
   1.62583807274E+07; -0.12956      ;-0.123155     
   1.63342864749E+07; -0.14743      ;-0.0671248    
   1.64105466046E+07; -0.139358     ;-0.00924436   
   1.64871627712E+07; -0.107573     ; 0.0384995    
   1.65641366369E+07; -0.0589035    ; 0.0671728    
   1.66414698715E+07; -0.00358364   ; 0.0717287    
   1.67191641531E+07;  0.047393     ; 0.0516577    
   1.67972211671E+07;  0.0839138    ; 0.0116535    
   1.68756426070E+07;  0.0984279    ;-0.0402175    
   1.69544301743E+07;  0.0876747    ;-0.092785     
   1.70335855784E+07;  0.0539323    ;-0.134761     
   1.71131105364E+07;  0.00403195   ;-0.155958     
   1.71930067738E+07; -0.0504775    ;-0.151077     
   1.72732760240E+07; -0.0961769    ;-0.120102     
   1.73539200285E+07; -0.122137     ;-0.0707572    
   1.74349405368E+07; -0.120938     ;-0.0148413    
   1.75163393068E+07; -0.0937       ; 0.0345587    
   1.75981181045E+07; -0.0467585    ; 0.0655309    
   1.76802787040E+07;  0.00891013   ; 0.0725302    
   1.77628228880E+07;  0.0620751    ; 0.0542189    
   1.78457524473E+07;  0.102045     ; 0.0148543    
   1.79290691811E+07;  0.121565     ;-0.0377294    
   1.80127748969E+07;  0.116466     ;-0.0938949    
   1.80968714109E+07;  0.08733      ;-0.141788     
   1.81813605476E+07;  0.0398314    ;-0.171196     
   1.82662441400E+07; -0.015568     ;-0.175593     
   1.83515240296E+07; -0.0654323    ;-0.152647     
   1.84372020668E+07; -0.0966554    ;-0.108334     
   1.85232801104E+07; -0.100317     ;-0.0555901    
   1.86097600278E+07; -0.0758978    ;-0.00966647   
   1.86966436952E+07; -0.0315453    ; 0.0160701    
   1.87839329978E+07;  0.0192369    ; 0.0147469    
   1.88716298293E+07;  0.0627107    ;-0.0123383    
   1.89597360923E+07;  0.0874228    ;-0.0577923    
   1.90482536983E+07;  0.0869519    ;-0.109962     
   1.91371845678E+07;  0.061683     ;-0.157005     
   1.92265306302E+07;  0.0165787    ;-0.186473     
   1.93162938239E+07; -0.037752     ;-0.190768     
   1.94064760964E+07; -0.0875048    ;-0.168301     
   1.94970794042E+07; -0.119774     ;-0.123876     
   1.95881057130E+07; -0.124059     ;-0.0697568    
   1.96795569978E+07; -0.100122     ;-0.0224552    
   1.97714352425E+07; -0.0558938    ; 0.00442922   
   1.98637424406E+07; -0.00520171   ; 0.00345714   
   1.99564805947E+07;  0.0371869    ;-0.02339      
   2.00496517169E+07;  0.05866      ;-0.0680188    
   2.01432578284E+07;  0.0539482    ;-0.11722      
   2.02373009602E+07;  0.0247052    ;-0.157121     
   2.03317831526E+07; -0.0218191    ;-0.175811     
   2.04267064554E+07; -0.0706863    ;-0.166859     
   2.05220729281E+07; -0.106756     ;-0.132305     
   2.06178846397E+07; -0.117277     ;-0.0841566    
   2.07141436689E+07; -0.0984538    ;-0.0390529    
   2.08108521040E+07; -0.0575697    ;-0.0134972    
   2.09080120433E+07; -0.00968442   ;-0.0161483    
   2.10056255947E+07;  0.0286293    ;-0.0451905    
   2.11036948759E+07;  0.044729     ;-0.0906574    
   2.12022220146E+07;  0.0344208    ;-0.138505     
   2.13012091485E+07;  0.000267114  ;-0.174404     
   2.14006584251E+07; -0.0483204    ;-0.187095     
   2.15005720021E+07; -0.0964655    ;-0.171552     
   2.16009520471E+07; -0.128247     ;-0.132595     
   2.17018007379E+07; -0.132371     ;-0.0821131    
   2.18031202625E+07; -0.107007     ;-0.0392632    
   2.19049128191E+07; -0.0624258    ;-0.0193137    
   2.20071806162E+07; -0.0150513    ;-0.028963     
   2.21099258724E+07;  0.0180484    ;-0.0631176    
   2.22131508170E+07;  0.026402     ;-0.109866     
   2.23168576894E+07;  0.00836878   ;-0.153367     
   2.24210487397E+07; -0.0304864    ;-0.180388     
   2.25257262283E+07; -0.0774542    ;-0.181584     
   2.26308924263E+07; -0.116148     ;-0.15597      
   2.27365496153E+07; -0.132122     ;-0.113325     
   2.28427000876E+07; -0.118158     ;-0.0701772    
   2.29493461463E+07; -0.0807883    ;-0.045737     
   2.30564901050E+07; -0.0364134    ;-0.0502776    
   2.31641342883E+07; -0.00397724   ;-0.080908     
   2.32722810316E+07;  0.00458217   ;-0.125207     
   2.33809326812E+07; -0.0135394    ;-0.167167     
   2.34900915945E+07; -0.0518096    ;-0.192254     
   2.35997601396E+07; -0.0974476    ;-0.191573     
   2.37099406959E+07; -0.13311      ;-0.165233     
   2.38206356539E+07; -0.144813     ;-0.123246     
   2.39318474150E+07; -0.12647      ;-0.0856383    
   2.40435783922E+07; -0.0885521    ;-0.0704567    
   2.41558310095E+07; -0.0501182    ;-0.0852382    
   2.42686077023E+07; -0.0295966    ;-0.122256     
   2.43819109173E+07; -0.0354416    ;-0.165887     
   2.44957431128E+07; -0.0656807    ;-0.19935      
   2.46101067583E+07; -0.109847     ;-0.211025     
   2.47250043351E+07; -0.153494     ;-0.19642      
   2.48404383360E+07; -0.180078     ;-0.160832     
   2.49564112653E+07; -0.178869     ;-0.118069     
   2.50729256392E+07; -0.15138      ;-0.0894213    
   2.51899839856E+07; -0.113785     ;-0.0884293    
   2.53075888439E+07; -0.087199     ;-0.114158     
   2.54257427659E+07; -0.0853279    ;-0.152167     
   2.55444483149E+07; -0.109541     ;-0.183803     
   2.56637080662E+07; -0.148521     ;-0.194338     
   2.57835246073E+07; -0.187381     ;-0.179307     
   2.59039005378E+07; -0.207942     ;-0.143885     
   2.60248384692E+07; -0.20092      ;-0.105275     
   2.61463410253E+07; -0.170053     ;-0.0834559    
   2.62684108422E+07; -0.133778     ;-0.0908332    
   2.63910505683E+07; -0.113684     ;-0.122237     
   2.65142628644E+07; -0.120071     ;-0.16003      
   2.66380504035E+07; -0.149349     ;-0.18651      
   2.67624158715E+07; -0.189202     ;-0.190681     
   2.68873619663E+07; -0.22335      ;-0.17106      
   2.70128913989E+07; -0.237307     ;-0.135955     
   2.71390068926E+07; -0.223848     ;-0.104286     
   2.72657111837E+07; -0.19321      ;-0.0944969    
   2.73930070210E+07; -0.167467     ;-0.112773     
   2.75208971662E+07; -0.163537     ;-0.146424     
   2.76493843942E+07; -0.185103     ;-0.176196     
   2.77784714923E+07; -0.222882     ;-0.187693     
   2.79081612614E+07; -0.261125     ;-0.175262     
   2.80384565151E+07; -0.284054     ;-0.143564     
   2.81693600801E+07; -0.282208     ;-0.108218     
   2.83008747966E+07; -0.258802     ;-0.0885814    
   2.84330035179E+07; -0.232412     ;-0.0963719    
   2.85657491105E+07; -0.225066     ;-0.123072     
   2.86991144545E+07; -0.242712     ;-0.149155     
   2.88331024432E+07; -0.276577     ;-0.158062     
   2.89677159837E+07; -0.311703     ;-0.144232     
   2.91029579965E+07; -0.332263     ;-0.112697     
   2.92388314157E+07; -0.32864      ;-0.0774961    
   2.93753391892E+07; -0.305585     ;-0.0582171    
   2.95124842786E+07; -0.280883     ;-0.0655557    
   2.96502696593E+07; -0.277072     ;-0.0898572    
   2.97886983207E+07; -0.297046     ;-0.110919     
   2.99277732661E+07; -0.330686     ;-0.113172     
   3.00674975128E+07; -0.361437     ;-0.0944889    
   3.02078740922E+07; -0.374821     ;-0.0611749    
   3.03489060499E+07; -0.365582     ;-0.0297404    
   3.04905964456E+07; -0.340212     ;-0.0168604    
   3.06329483533E+07; -0.320505     ;-0.0296047    
   3.07759648616E+07; -0.322889     ;-0.0536306    
   3.09196490732E+07; -0.346725     ;-0.0680685    
   3.10640041054E+07; -0.377429     ;-0.0619343    
   3.12090330902E+07; -0.399179     ;-0.037553     
   3.13547391740E+07; -0.401498     ;-0.00700881   
   3.15011255179E+07; -0.38582      ; 0.0118592    
   3.16481952980E+07; -0.369767     ; 0.00888544   
   3.17959517050E+07; -0.371791     ;-0.00690946   
   3.19443979446E+07; -0.393534     ;-0.0151328    
   3.20935372374E+07; -0.421769     ;-0.00441339   
   3.22433728190E+07; -0.440879     ; 0.0227975    
   3.23939079403E+07; -0.441801     ; 0.0559592    
   3.25451458671E+07; -0.424788     ; 0.0796213    
   3.26970898808E+07; -0.403791     ; 0.0815166    
   3.28497432778E+07; -0.398121     ; 0.0672849    
   3.30031093699E+07; -0.414629     ; 0.0564905    
   3.31571914847E+07; -0.440157     ; 0.0637141    
   3.33119929650E+07; -0.45919      ; 0.0883489    
   3.34675171693E+07; -0.46193      ; 0.120642     
   3.36237674717E+07; -0.447676     ; 0.145877     
   3.37807472624E+07; -0.427769     ; 0.152527     
   3.39384599469E+07; -0.421144     ; 0.143873     
   3.40969089470E+07; -0.433818     ; 0.139283     
   3.42560977004E+07; -0.453137     ; 0.151427     
   3.44160296607E+07; -0.463134     ; 0.178826     
   3.45767082978E+07; -0.456526     ; 0.208481     
   3.47381370976E+07; -0.436346     ; 0.226829     
   3.49003195625E+07; -0.417359     ; 0.225995     
   3.50632592111E+07; -0.415955     ; 0.215778     
   3.52269595786E+07; -0.430375     ; 0.216001     
   3.53914242164E+07; -0.444409     ; 0.23276      
   3.55566566927E+07; -0.446019     ; 0.258555     
   3.57226605924E+07; -0.43274      ; 0.278951     
   3.58894395170E+07; -0.415567     ; 0.283584     
   3.60569970849E+07; -0.412324     ; 0.276329     
   3.62253369313E+07; -0.424982     ; 0.275616     
   3.63944627086E+07; -0.440847     ; 0.291315     
   3.65643780859E+07; -0.446591     ; 0.318771     
   3.67350867496E+07; -0.437893     ; 0.346147     
   3.69065924035E+07; -0.419744     ; 0.363051     
   3.70788987684E+07; -0.405157     ; 0.365169     
   3.72520095827E+07; -0.404874     ; 0.363719     
   3.74259286020E+07; -0.414384     ; 0.37385      
   3.76006595997E+07; -0.418555     ; 0.396315     
   3.77762063666E+07; -0.410228     ; 0.421024     
   3.79525727113E+07; -0.392768     ; 0.438914     
   3.81297624603E+07; -0.376642     ; 0.444244     
   3.83077794577E+07; -0.372003     ; 0.445141     
   3.84866275658E+07; -0.375879     ; 0.45549      
   3.86663106647E+07; -0.37497      ; 0.476307     
   3.88468326529E+07; -0.3631       ; 0.499283     
   3.90281974467E+07; -0.343127     ; 0.514132     
   3.92104089811E+07; -0.325345     ; 0.517408     
   3.93934712093E+07; -0.319148     ; 0.517827     
   3.95773881028E+07; -0.319819     ; 0.527463     
   3.97621636519E+07; -0.314793     ; 0.546444     
   3.99478018654E+07; -0.299794     ; 0.565135     
   4.01343067708E+07; -0.280046     ; 0.575416     
   4.03216824145E+07; -0.264953     ; 0.576814     
   4.05099328617E+07; -0.26164      ; 0.579812     
   4.06990621966E+07; -0.258827     ; 0.593434     
   4.08890745225E+07; -0.249096     ; 0.611419     
   4.10799739618E+07; -0.230673     ; 0.628922     
   4.12717646562E+07; -0.209876     ; 0.636683     
   4.14644507667E+07; -0.193813     ; 0.638307     
   4.16580364737E+07; -0.187229     ; 0.642679     
   4.18525259773E+07; -0.179262     ; 0.656473     
   4.20479234969E+07; -0.165595     ; 0.671686     
   4.22442332719E+07; -0.141469     ; 0.684588     
   4.24414595613E+07; -0.118143     ; 0.688263     
   4.26396066441E+07; -0.101357     ; 0.686629     
   4.28386788191E+07; -0.0914143    ; 0.689785     
   4.30386804054E+07; -0.0785844    ; 0.699481     
   4.32396157421E+07; -0.0600484    ; 0.708736     
   4.34414891886E+07; -0.0396337    ; 0.71241      
   4.36443051248E+07; -0.0224607    ; 0.712246     
   4.38480679508E+07; -0.010236     ; 0.714403     
   4.40527820874E+07;  0.00348417   ; 0.722717     
   4.42584519759E+07;  0.0243112    ; 0.729751     
   4.44650820786E+07;  0.0473259    ; 0.731466     
   4.46726768783E+07;  0.0661607    ; 0.72772      
   4.48812408790E+07;  0.0782116    ; 0.7256       
   4.50907786056E+07;  0.091354     ; 0.730439     
   4.53012946042E+07;  0.109397     ; 0.736952     
   4.55127934419E+07;  0.131857     ; 0.738401     
   4.57252797075E+07;  0.152754     ; 0.734624     
   4.59387580110E+07;  0.167619     ; 0.731393     
   4.61532329838E+07;  0.182437     ; 0.733413     
   4.63687092791E+07;  0.201104     ; 0.736222     
   4.65851915719E+07;  0.224114     ; 0.7362       
   4.68026845588E+07;  0.244875     ; 0.731311     
   4.70211929585E+07;  0.262778     ; 0.725069     
   4.72407215117E+07;  0.279191     ; 0.723181     
   4.74612749811E+07;  0.299449     ; 0.722101     
   4.76828581519E+07;  0.321316     ; 0.716346     
   4.79054758313E+07;  0.341436     ; 0.7086       
   4.81291328493E+07;  0.357665     ; 0.699789     
   4.83538340582E+07;  0.374204     ; 0.694289     
   4.85795843329E+07;  0.393309     ; 0.690178     
   4.88063885715E+07;  0.413984     ; 0.681459     
   4.90342516943E+07;  0.43271      ; 0.669865     
   4.92631786452E+07;  0.446365     ; 0.660236     
   4.94931743908E+07;  0.462032     ; 0.653955     
   4.97242439210E+07;  0.480961     ; 0.646049     
   4.99563922490E+07;  0.500002     ; 0.635916     
   5.01896244114E+07;  0.517493     ; 0.622759     
   5.04239454683E+07;  0.532299     ; 0.612237     
   5.06593605035E+07;  0.548734     ; 0.601792     
   5.08958746244E+07;  0.566494     ; 0.589354     
   5.11334929623E+07;  0.582491     ; 0.574613     
   5.13722206726E+07;  0.595701     ; 0.560776     
   5.16120629345E+07;  0.609591     ; 0.549839     
   5.18530249516E+07;  0.626049     ; 0.537751     
   5.20951119517E+07;  0.642191     ; 0.522855     
   5.23383291871E+07;  0.656366     ; 0.506024     
   5.25826819344E+07;  0.668659     ; 0.490963     
   5.28281754951E+07;  0.682416     ; 0.477863     
   5.30748151953E+07;  0.697101     ; 0.461935     
   5.33226063859E+07;  0.710559     ; 0.444178     
   5.35715544431E+07;  0.721799     ; 0.427188     
   5.38216647678E+07;  0.73302      ; 0.410946     
   5.40729427863E+07;  0.745088     ; 0.394537     
   5.43253939503E+07;  0.758002     ; 0.375913     
   5.45790237369E+07;  0.768267     ; 0.356796     
   5.48338376487E+07;  0.777284     ; 0.338719     
   5.50898412140E+07;  0.787978     ; 0.320499     
   5.53470399871E+07;  0.798272     ; 0.301013     
   5.56054395479E+07;  0.807027     ; 0.28034      
   5.58650455027E+07;  0.813755     ; 0.260584     
   5.61258634837E+07;  0.822181     ; 0.241527     
   5.63878991496E+07;  0.830832     ; 0.221107     
   5.66511581853E+07;  0.837508     ; 0.199739     
   5.69156463025E+07;  0.843048     ; 0.1787       
   5.71813692393E+07;  0.848572     ; 0.158573     
   5.74483327608E+07;  0.855065     ; 0.136768     
   5.77165426589E+07;  0.859404     ; 0.114363     
   5.79860047526E+07;  0.863        ; 0.0926312    
   5.82567248881E+07;  0.866437     ; 0.0717104    
   5.85287089388E+07;  0.870569     ; 0.0500783    
   5.88019628055E+07;  0.872509     ; 0.0266493    
   5.90764924166E+07;  0.874035     ; 0.00468183   
   5.93523037283E+07;  0.875814     ;-0.0171286    
   5.96294027244E+07;  0.877682     ;-0.0399819    
   5.99077954168E+07;  0.87719      ;-0.0639781    
   6.01874878453E+07;  0.875943     ;-0.0872251    
   6.04684860782E+07;  0.8755       ;-0.109665     
   6.07507962117E+07;  0.873653     ;-0.132916     
   6.10344243707E+07;  0.870939     ;-0.157034     
   6.13193767089E+07;  0.867722     ;-0.179846     
   6.16056594083E+07;  0.863964     ;-0.202553     
   6.18932786801E+07;  0.859517     ;-0.226237     
   6.21822407643E+07;  0.853743     ;-0.249909     
   6.24725519302E+07;  0.847584     ;-0.272971     
   6.27642184762E+07;  0.840888     ;-0.295881     
   6.30572467302E+07;  0.833695     ;-0.319148     
   6.33516430496E+07;  0.825199     ;-0.342071     
   6.36474138216E+07;  0.815547     ;-0.364114     
   6.39445654630E+07;  0.806956     ;-0.386438     
   6.42431044208E+07;  0.797098     ;-0.40881      
   6.45430371719E+07;  0.785833     ;-0.430898     
   6.48443702236E+07;  0.774604     ;-0.452131     
   6.51471101134E+07;  0.762891     ;-0.473577     
   6.54512634096E+07;  0.750056     ;-0.495072     
   6.57568367108E+07;  0.737241     ;-0.516125     
   6.60638366467E+07;  0.722299     ;-0.536563     
   6.63722698778E+07;  0.708342     ;-0.557938     
   6.66821430959E+07;  0.692412     ;-0.57772      
   6.69934630236E+07;  0.676746     ;-0.59735      
   6.73062364155E+07;  0.65982      ;-0.616309     
   6.76204700572E+07;  0.642706     ;-0.635736     
   6.79361707662E+07;  0.625029     ;-0.654138     
   6.82533453919E+07;  0.606019     ;-0.671235     
   6.85720008156E+07;  0.586604     ;-0.689573     
   6.88921439506E+07;  0.566645     ;-0.70681      
   6.92137817427E+07;  0.546739     ;-0.723507     
   6.95369211701E+07;  0.525986     ;-0.739099     
   6.98615692434E+07;  0.504015     ;-0.754377     
   7.01877330060E+07;  0.481593     ;-0.76915      
   7.05154195343E+07;  0.458956     ;-0.783671     
   7.08446359376E+07;  0.436092     ;-0.796738     
   7.11753893586E+07;  0.412158     ;-0.809719     
   7.15076869730E+07;  0.38822      ;-0.821882     
   7.18415359903E+07;  0.363681     ;-0.834108     
   7.21769436536E+07;  0.338326     ;-0.844842     
   7.25139172397E+07;  0.313001     ;-0.854018     
   7.28524640594E+07;  0.287187     ;-0.863769     
   7.31925914578E+07;  0.260037     ;-0.872097     
   7.35343068141E+07;  0.233425     ;-0.880051     
   7.38776175420E+07;  0.205944     ;-0.886515     
   7.42225310900E+07;  0.179067     ;-0.893319     
   7.45690549410E+07;  0.150661     ;-0.897987     
   7.49171966131E+07;  0.122474     ;-0.902525     
   7.52669636596E+07;  0.094732     ;-0.905515     
   7.56183636687E+07;  0.065331     ;-0.907883     
   7.59714042643E+07;  0.0374646    ;-0.90929      
   7.63260931059E+07;  0.0081358    ;-0.909491     
   7.66824378886E+07; -0.0209681    ;-0.909247     
   7.70404463437E+07; -0.0504302    ;-0.908035     
   7.74001262381E+07; -0.0795339    ;-0.905365     
   7.77614853756E+07; -0.108415     ;-0.9022       
   7.81245315959E+07; -0.13766      ;-0.898178     
   7.84892727755E+07; -0.1664       ;-0.892831     
   7.88557168278E+07; -0.195955     ;-0.886118     
   7.92238717030E+07; -0.224907     ;-0.879223     
   7.95937453884E+07; -0.253417     ;-0.870729     
   7.99653459087E+07; -0.282529     ;-0.861272     
   8.03386813259E+07; -0.310811     ;-0.851659     
   8.07137597398E+07; -0.339081     ;-0.83997      
   8.10905892880E+07; -0.36753      ;-0.826905     
   8.14691781460E+07; -0.395382     ;-0.813162     
   8.18495345275E+07; -0.422287     ;-0.798603     
   8.22316666845E+07; -0.448794     ;-0.782727     
   8.26155829078E+07; -0.474974     ;-0.765874     
   8.30012915265E+07; -0.49948      ;-0.748706     
   8.33888009088E+07; -0.526104     ;-0.730997     
   8.37781194620E+07; -0.549987     ;-0.711014     
   8.41692556327E+07; -0.573794     ;-0.690562     
   8.45622179067E+07; -0.597162     ;-0.668789     
   8.49570148096E+07; -0.61917      ;-0.646612     
   8.53536549067E+07; -0.641675     ;-0.623387     
   8.57521468035E+07; -0.662383     ;-0.599704     
   8.61524991454E+07; -0.682599     ;-0.574201     
   8.65547206183E+07; -0.700636     ;-0.54926      
   8.69588199487E+07; -0.719278     ;-0.523169     
   8.73648059037E+07; -0.73617      ;-0.496265     
   8.77726872915E+07; -0.753426     ;-0.469645     
   8.81824729612E+07; -0.769064     ;-0.439491     
   8.85941718035E+07; -0.782618     ;-0.409755     
   8.90077927504E+07; -0.794638     ;-0.380552     
   8.94233447757E+07; -0.807533     ;-0.350219     
   8.98408368949E+07; -0.817082     ;-0.320032     
   9.02602781660E+07; -0.8283       ;-0.288627     
   9.06816776888E+07; -0.835822     ;-0.257363     
   9.11050446059E+07; -0.841375     ;-0.224858     
   9.15303881026E+07; -0.847066     ;-0.194026     
   9.19577174068E+07; -0.85069      ;-0.163195     
   9.23870417898E+07; -0.854772     ;-0.132601     
   9.28183705661E+07; -0.857121     ;-0.100587     
   9.32517130935E+07; -0.85911      ;-0.0694605    
   9.36870787737E+07; -0.860563     ;-0.0373778    
   9.41244770522E+07; -0.860285     ;-0.0059728    
   9.45639174187E+07; -0.860458     ; 0.0254576    
   9.50054094070E+07; -0.859996     ; 0.0605596    
   9.54489625957E+07; -0.853233     ; 0.096271     
   9.58945866078E+07; -0.846144     ; 0.128766     
   9.63422911115E+07; -0.837717     ; 0.159639     
   9.67920858199E+07; -0.829082     ; 0.190863     
   9.72439804917E+07; -0.820923     ; 0.221238     
   9.76979849309E+07; -0.810214     ; 0.252179     
   9.81541089876E+07; -0.798185     ; 0.283688     
   9.86123625575E+07; -0.785566     ; 0.313398     
   9.90727555827E+07; -0.772589     ; 0.344131     
   9.95352980519E+07; -0.754242     ; 0.374567     
   1.00000000000E+08; -0.73848      ; 0.401484     
